EEG 1,EEG 2,EEG 3,EEG 4,EEG 5,EEG 6,EEG 7,EEG 8,Accelerometer X,Accelerometer Y,Accelerometer Z,Gyroscope X,Gyroscope Y,Gyroscope Z,Battery Level,Counter,Validation Indicator
-15.122,-15.928,-8.277,-5.552,-10.156,-8.692,-11.965,-8.804,-0.075,0.972,-0.296,-0.397,-1.099,0.214,60.000,10521.000,1.000
-9.504,-9.799,-4.360,-1.162,-6.085,-4.825,-7.052,-5.608,-0.075,0.973,-0.296,-0.366,-1.129,0.214,60.000,10522.000,1.000
-2.351,-2.824,-0.251,2.987,-1.391,0.282,0.350,-1.212,-0.074,0.972,-0.297,-0.336,-1.160,0.122,60.000,10523.000,1.000
4.156,2.655,2.722,5.554,2.510,5.046,7.674,2.774,-0.073,0.974,-0.296,-0.427,-1.160,0.153,60.000,10524.000,1.000
7.406,4.583,3.080,5.274,3.803,7.127,11.245,4.201,-0.072,0.972,-0.298,-0.549,-1.068,0.153,60.000,10525.000,1.000
6.298,2.406,0.394,2.054,1.640,4.812,8.703,2.127,-0.073,0.969,-0.299,-0.610,-1.038,0.122,60.000,10526.000,1.000
2.050,-2.132,-3.751,-2.420,-2.689,-1.050,0.961,-2.016,-0.076,0.971,-0.295,-0.580,-1.007,0.031,60.000,10527.000,1.000
-1.451,-5.119,-6.088,-4.937,-5.813,-6.559,-7.350,-4.819,-0.078,0.972,-0.296,-0.641,-1.068,0.000,60.000,10528.000,1.000
-0.381,-3.071,-3.941,-2.902,-4.514,-7.396,-10.843,-3.358,-0.079,0.972,-0.296,-0.641,-1.129,0.031,60.000,10529.000,1.000
5.725,4.299,2.624,3.473,1.712,-2.186,-7.459,2.507,-0.076,0.973,-0.294,-0.641,-1.251,-0.031,60.000,10530.000,1.000
14.219,14.003,10.666,11.158,10.145,6.570,0.435,9.969,-0.077,0.973,-0.293,-0.763,-1.221,-0.153,60.000,10531.000,1.000
20.597,21.387,15.982,15.887,16.318,14.121,7.763,14.827,-0.077,0.974,-0.295,-0.854,-1.251,-0.122,60.000,10532.000,1.000
21.814,23.269,15.960,15.216,17.239,16.887,10.966,14.588,-0.076,0.973,-0.292,-0.916,-1.251,-0.183,60.000,10533.000,1.000
17.916,19.680,11.223,10.077,13.251,14.491,10.051,10.332,-0.076,0.973,-0.295,-0.946,-1.373,-0.153,60.000,10534.000,1.000
11.315,13.302,5.154,3.933,7.397,9.577,7.652,5.861,-0.076,0.974,-0.296,-1.007,-1.312,-0.092,60.000,10535.000,1.000
5.544,7.648,1.562,0.412,3.258,6.070,7.084,4.905,-0.077,0.974,-0.297,-1.007,-1.251,-0.183,60.000,10536.000,1.000
2.404,4.562,1.809,0.478,2.318,6.344,9.434,8.096,-0.078,0.973,-0.296,-1.038,-1.343,-0.122,60.000,10537.000,1.000
1.788,3.880,4.424,2.425,3.636,9.939,13.347,12.905,-0.075,0.974,-0.295,-1.068,-1.465,-0.031,60.000,10538.000,1.000
2.324,4.101,6.617,3.537,5.007,14.169,16.329,15.613,-0.075,0.970,-0.296,-1.007,-1.404,-0.122,60.000,10539.000,1.000
2.432,3.663,6.423,2.163,4.759,16.279,16.553,13.903,-0.077,0.969,-0.295,-1.038,-1.404,-0.031,60.000,10540.000,1.000
2.234,2.461,4.032,-1.009,3.034,15.254,14.301,8.434,-0.078,0.965,-0.295,-1.038,-1.343,-0.061,60.000,10541.000,1.000
2.407,1.174,0.966,-4.328,0.761,11.292,10.380,1.523,-0.079,0.965,-0.296,-0.946,-1.373,0.031,60.000,10542.000,1.000
3.366,0.367,-1.162,-6.572,-1.439,5.201,5.225,-4.625,-0.076,0.963,-0.294,-0.916,-1.434,0.061,60.000,10543.000,1.000
4.651,-0.002,-1.643,-7.564,-3.579,-1.938,-1.013,-8.925,-0.077,0.964,-0.296,-0.763,-1.465,0.000,60.000,10544.000,1.000
5.185,-0.255,-0.799,-7.801,-5.809,-8.862,-7.804,-11.428,-0.078,0.963,-0.294,-0.610,-1.465,0.000,60.000,10545.000,1.000
4.953,-0.117,0.827,-7.457,-7.579,-13.834,-13.168,-12.457,-0.079,0.967,-0.298,-0.519,-1.465,-0.031,60.000,10546.000,1.000
4.407,0.867,2.960,-6.390,-7.914,-15.083,-14.920,-12.114,-0.077,0.970,-0.296,-0.427,-1.526,-0.061,60.000,10547.000,1.000
4.343,3.016,5.591,-4.224,-5.976,-11.671,-12.081,-10.140,-0.078,0.972,-0.296,-0.336,-1.495,0.092,60.000,10548.000,1.000
4.980,5.703,8.015,-1.305,-2.277,-4.965,-6.198,-6.969,-0.077,0.972,-0.294,-0.397,-1.495,0.092,60.000,10549.000,1.000
5.331,7.228,8.705,0.911,1.008,1.462,-0.901,-4.268,-0.075,0.971,-0.293,-0.488,-1.282,0.061,60.000,10550.000,1.000
4.759,6.370,6.750,1.268,1.832,4.374,1.021,-3.568,-0.075,0.971,-0.297,-0.610,-1.312,0.061,60.000,10551.000,1.000
2.982,3.111,2.762,-0.187,-0.132,2.983,-0.921,-5.079,-0.075,0.974,-0.297,-0.580,-1.190,0.031,60.000,10552.000,1.000
0.709,-1.032,-1.144,-1.988,-3.045,-0.625,-4.629,-7.338,-0.075,0.974,-0.299,-0.580,-1.282,0.061,60.000,10553.000,1.000
-0.848,-4.127,-2.986,-2.650,-4.622,-3.540,-7.241,-8.550,-0.076,0.974,-0.300,-0.549,-1.190,0.031,60.000,10554.000,1.000
-1.159,-5.337,-2.411,-1.959,-3.996,-4.217,-7.180,-8.061,-0.073,0.974,-0.296,-0.519,-1.068,0.092,60.000,10555.000,1.000
0.127,-4.717,-0.233,-0.387,-1.490,-2.568,-4.163,-6.102,-0.071,0.971,-0.297,-0.610,-0.916,0.183,60.000,10556.000,1.000
2.533,-2.806,2.565,1.437,2.014,0.615,0.560,-3.231,-0.070,0.972,-0.295,-0.671,-0.824,0.275,60.000,10557.000,1.000
5.274,-0.037,5.366,3.128,5.633,4.296,5.135,0.049,-0.068,0.968,-0.298,-0.641,-0.580,0.244,60.000,10558.000,1.000
7.382,2.883,7.470,4.208,8.371,7.213,7.925,2.936,-0.069,0.967,-0.297,-0.610,-0.488,0.214,60.000,10559.000,1.000
7.813,4.778,8.118,4.148,9.390,8.416,8.156,4.447,-0.072,0.967,-0.299,-0.549,-0.305,0.305,60.000,10560.000,1.000
6.726,4.882,7.100,3.015,8.726,7.917,6.657,4.285,-0.072,0.969,-0.296,-0.549,-0.275,0.336,60.000,10561.000,1.000
4.277,2.695,4.376,0.924,6.628,5.726,4.222,2.600,-0.074,0.976,-0.298,-0.671,-0.214,0.244,60.000,10562.000,1.000
0.713,-1.494,0.339,-1.650,3.576,1.918,1.298,0.079,-0.076,0.975,-0.300,-0.641,-0.122,0.214,60.000,10563.000,1.000
-2.657,-5.763,-3.354,-3.201,1.080,-2.008,-0.904,-1.552,-0.075,0.978,-0.298,-0.763,-0.061,0.244,60.000,10564.000,1.000
-3.501,-7.166,-4.241,-1.865,1.289,-3.165,-0.454,-0.204,-0.074,0.979,-0.301,-0.885,-0.092,0.305,60.000,10565.000,1.000
0.194,-3.990,-1.180,2.783,5.019,0.228,3.556,4.650,-0.075,0.978,-0.300,-0.946,-0.122,0.397,60.000,10566.000,1.000
6.978,1.939,4.106,8.419,10.141,6.548,8.925,10.776,-0.075,0.976,-0.299,-1.099,-0.092,0.366,60.000,10567.000,1.000
12.737,6.568,8.429,11.688,13.166,12.166,12.161,14.949,-0.078,0.975,-0.299,-1.190,-0.031,0.336,60.000,10568.000,1.000
13.504,6.384,9.206,10.403,11.618,14.008,10.963,14.997,-0.081,0.975,-0.301,-1.190,-0.061,0.336,60.000,10569.000,1.000
8.129,0.712,5.819,4.759,5.420,11.109,5.252,10.804,-0.083,0.975,-0.298,-1.221,-0.153,0.366,60.000,10570.000,1.000
-0.028,-7.293,0.079,-2.480,-2.717,5.123,-2.097,4.651,-0.083,0.971,-0.296,-1.190,-0.214,0.244,60.000,10571.000,1.000
-6.325,-13.016,-5.079,-7.933,-9.048,-0.834,-6.851,-0.251,-0.087,0.972,-0.295,-1.221,-0.336,0.244,60.000,10572.000,1.000
-8.068,-13.375,-7.323,-9.542,-11.004,-3.927,-5.921,-1.751,-0.088,0.975,-0.294,-1.251,-0.397,0.183,60.000,10573.000,1.000
-6.106,-8.807,-6.422,-7.825,-8.907,-3.659,-0.254,-0.268,-0.091,0.974,-0.294,-1.282,-0.641,0.122,60.000,10574.000,1.000
-3.648,-2.507,-4.118,-5.116,-5.435,-2.040,5.453,1.867,-0.089,0.973,-0.292,-1.404,-0.824,0.031,60.000,10575.000,1.000
-2.569,2.745,-2.273,-3.141,-2.966,-1.269,7.338,2.804,-0.086,0.970,-0.294,-1.465,-1.038,0.000,60.000,10576.000,1.000
-3.391,5.568,-1.926,-2.467,-2.514,-2.363,4.603,1.908,-0.086,0.969,-0.292,-1.404,-1.251,-0.031,60.000,10577.000,1.000
-6.174,5.336,-3.323,-3.044,-4.145,-5.207,-1.084,-0.778,-0.084,0.970,-0.295,-1.282,-1.312,0.061,60.000,10578.000,1.000
-10.887,1.738,-6.368,-4.851,-7.625,-9.239,-7.542,-5.137,-0.084,0.972,-0.296,-1.312,-1.434,0.000,60.000,10579.000,1.000
-16.642,-4.338,-10.332,-7.538,-12.022,-13.367,-12.892,-10.538,-0.082,0.971,-0.295,-1.312,-1.526,0.061,60.000,10580.000,1.000
-20.857,-10.355,-13.555,-9.837,-15.345,-15.835,-15.157,-15.296,-0.077,0.972,-0.296,-1.282,-1.556,0.092,60.000,10581.000,1.000
-22.074,-14.376,-14.739,-10.802,-16.169,-15.629,-13.843,-17.985,-0.077,0.973,-0.297,-1.251,-1.617,0.122,60.000,10582.000,1.000
-20.226,-15.567,-13.395,-9.962,-14.105,-12.731,-9.808,-17.913,-0.077,0.973,-0.295,-1.251,-1.617,0.275,60.000,10583.000,1.000
-14.979,-12.950,-9.200,-6.673,-8.922,-7.311,-3.721,-14.471,-0.076,0.973,-0.290,-1.251,-1.648,0.458,60.000,10584.000,1.000
-5.951,-5.650,-1.999,-0.463,-0.540,0.397,4.411,-7.264,-0.075,0.971,-0.293,-1.404,-1.526,0.610,60.000,10585.000,1.000
6.167,5.604,7.272,8.044,10.034,9.431,14.414,2.879,-0.074,0.969,-0.294,-1.282,-1.495,0.671,60.000,10586.000,1.000
18.035,17.496,15.961,16.407,19.984,17.401,23.850,13.172,-0.075,0.969,-0.295,-1.251,-1.343,0.793,60.000,10587.000,1.000
25.747,25.997,21.086,21.697,26.049,21.682,29.139,20.253,-0.076,0.968,-0.298,-1.038,-1.343,0.793,60.000,10588.000,1.000
27.074,28.482,21.023,22.050,26.267,20.926,28.272,21.965,-0.076,0.968,-0.294,-1.007,-1.221,0.763,60.000,10589.000,1.000
22.058,24.705,16.294,17.567,20.960,15.672,22.081,18.341,-0.075,0.969,-0.294,-0.916,-1.099,0.885,60.000,10590.000,1.000
13.253,16.872,9.223,10.377,12.671,8.017,13.699,11.532,-0.074,0.970,-0.295,-0.916,-1.099,1.007,60.000,10591.000,1.000
3.432,7.772,2.310,2.966,4.330,0.180,5.708,4.203,-0.074,0.971,-0.300,-0.885,-1.007,0.977,60.000,10592.000,1.000
-4.945,-0.204,-2.691,-2.690,-1.924,-6.199,-0.668,-1.487,-0.073,0.969,-0.297,-0.946,-0.916,1.038,60.000,10593.000,1.000
-9.993,-5.588,-5.206,-5.588,-5.302,-10.457,-5.097,-4.432,-0.071,0.968,-0.293,-0.824,-0.763,0.977,60.000,10594.000,1.000
-11.453,-8.420,-5.853,-6.045,-6.528,-13.010,-7.962,-4.895,-0.071,0.968,-0.295,-0.763,-0.580,0.916,60.000,10595.000,1.000
-10.058,-9.610,-5.552,-5.017,-6.901,-14.492,-9.631,-3.845,-0.070,0.967,-0.297,-0.580,-0.427,0.946,60.000,10596.000,1.000
-7.157,-9.929,-4.647,-3.370,-7.178,-15.017,-10.519,-2.065,-0.072,0.966,-0.296,-0.549,-0.305,0.916,60.000,10597.000,1.000
-3.053,-8.786,-2.486,-0.918,-6.626,-13.702,-10.264,0.694,-0.073,0.967,-0.299,-0.427,-0.214,0.885,60.000,10598.000,1.000
2.518,-5.294,1.193,2.658,-4.216,-9.862,-8.106,4.806,-0.071,0.968,-0.299,-0.397,-0.061,0.702,60.000,10599.000,1.000
8.159,-0.467,4.892,6.242,-0.568,-4.556,-4.440,9.302,-0.071,0.969,-0.299,-0.336,0.031,0.732,60.000,10600.000,1.000
11.378,3.052,6.304,7.862,2.311,-0.165,-0.863,12.306,-0.071,0.971,-0.294,-0.336,0.183,0.732,60.000,10601.000,1.000
9.844,2.811,4.099,6.164,2.552,1.048,0.309,12.378,-0.071,0.975,-0.294,-0.458,0.397,0.671,60.000,10602.000,1.000
3.901,-1.204,-0.807,1.908,0.134,-1.338,-1.846,9.884,-0.070,0.973,-0.295,-0.519,0.488,0.702,60.000,10603.000,1.000
-3.491,-6.862,-6.069,-2.730,-3.404,-5.877,-6.169,6.489,-0.072,0.975,-0.295,-0.641,0.519,0.580,60.000,10604.000,1.000
-9.278,-11.879,-9.626,-5.993,-6.427,-10.453,-10.727,3.614,-0.074,0.975,-0.293,-0.580,0.641,0.610,60.000,10605.000,1.000
-11.478,-14.719,-10.433,-7.177,-7.830,-13.161,-13.499,1.922,-0.078,0.973,-0.294,-0.641,0.641,0.427,60.000,10606.000,1.000
-10.856,-15.507,-8.948,-7.061,-7.794,-13.632,-13.850,0.996,-0.077,0.974,-0.294,-0.671,0.580,0.427,60.000,10607.000,1.000
-9.511,-15.491,-6.714,-7.057,-7.544,-13.177,-12.561,-0.166,-0.077,0.977,-0.294,-0.824,0.549,0.427,60.000,10608.000,1.000
-8.269,-15.680,-5.376,-8.013,-8.244,-13.439,-10.876,-2.290,-0.079,0.976,-0.295,-0.885,0.519,0.397,60.000,10609.000,1.000
-6.440,-16.224,-5.817,-9.858,-10.181,-14.953,-9.797,-5.382,-0.082,0.974,-0.295,-0.885,0.488,0.397,60.000,10610.000,1.000
-3.484,-16.808,-7.841,-11.975,-12.816,-16.999,-9.615,-8.818,-0.083,0.975,-0.294,-0.916,0.305,0.336,60.000,10611.000,1.000
-1.884,-17.954,-10.761,-14.311,-15.828,-18.786,-10.816,-12.164,-0.083,0.972,-0.296,-1.068,0.183,0.305,60.000,10612.000,1.000
-4.302,-19.915,-13.391,-16.681,-18.687,-19.433,-13.079,-14.964,-0.086,0.972,-0.294,-1.190,0.092,0.275,60.000,10613.000,1.000
-8.857,-21.013,-14.143,-17.795,-19.876,-17.769,-14.320,-16.289,-0.084,0.968,-0.297,-1.190,-0.092,0.275,60.000,10614.000,1.000
-10.101,-18.545,-11.885,-15.981,-17.662,-13.157,-12.214,-15.181,-0.083,0.969,-0.294,-1.221,-0.153,0.336,60.000,10615.000,1.000
-4.900,-11.654,-6.958,-10.955,-11.919,-6.507,-6.468,-11.681,-0.083,0.970,-0.296,-1.038,-0.366,0.580,60.000,10616.000,1.000
1.974,-3.826,-1.807,-5.295,-5.524,-0.683,-0.557,-7.898,-0.083,0.970,-0.294,-1.099,-0.519,0.519,60.000,10617.000,1.000
2.714,-0.148,0.705,-2.292,-2.160,1.614,1.351,-6.534,-0.083,0.972,-0.296,-1.099,-0.580,0.519,60.000,10618.000,1.000
-3.911,-2.035,-0.168,-2.483,-2.661,0.338,-1.053,-8.152,-0.084,0.973,-0.295,-1.129,-0.610,0.641,60.000,10619.000,1.000
-11.121,-6.082,-2.515,-3.277,-4.382,-1.967,-3.975,-10.605,-0.082,0.973,-0.293,-1.099,-0.641,0.580,60.000,10620.000,1.000
-12.170,-8.203,-3.809,-2.053,-4.243,-2.561,-3.598,-11.342,-0.080,0.973,-0.292,-1.068,-0.824,0.763,60.000,10621.000,1.000
-9.054,-8.291,-3.406,0.562,-2.206,-1.090,-0.874,-10.217,-0.083,0.975,-0.296,-1.160,-1.068,0.793,60.000,10622.000,1.000
-8.506,-8.585,-2.119,2.277,-0.289,1.040,0.410,-8.742,-0.085,0.974,-0.295,-1.190,-1.068,0.916,60.000,10623.000,1.000
-11.893,-9.313,-0.540,2.579,0.630,2.791,-0.739,-7.607,-0.084,0.975,-0.296,-1.160,-1.190,0.946,60.000,10624.000,1.000
-13.503,-8.169,1.373,3.061,1.579,4.144,-1.266,-6.124,-0.084,0.970,-0.295,-1.251,-1.343,1.038,60.000,10625.000,1.000
-8.491,-3.723,3.431,4.794,3.407,5.102,1.444,-3.745,-0.082,0.970,-0.294,-1.129,-1.434,1.007,60.000,10626.000,1.000
-1.103,1.472,4.562,6.147,4.824,4.896,4.778,-1.491,-0.085,0.966,-0.299,-1.129,-1.526,1.221,60.000,10627.000,1.000
0.520,3.868,4.419,5.370,4.561,3.806,4.632,-0.268,-0.083,0.966,-0.298,-1.068,-1.556,1.129,60.000,10628.000,1.000
-4.407,3.898,4.604,3.821,4.219,4.266,2.075,1.081,-0.079,0.967,-0.299,-0.946,-1.617,1.129,60.000,10629.000,1.000
-7.756,5.975,7.240,4.920,7.241,8.808,2.898,4.759,-0.077,0.968,-0.300,-0.885,-1.709,1.129,60.000,10630.000,1.000
-2.052,13.419,12.554,10.211,15.034,17.153,10.713,11.304,-0.074,0.968,-0.297,-0.916,-1.740,1.190,60.000,10631.000,1.000
9.026,23.285,17.798,16.537,24.118,25.188,21.043,17.879,-0.073,0.969,-0.299,-0.946,-1.648,1.282,60.000,10632.000,1.000
14.742,28.784,19.543,18.986,28.866,28.156,25.538,20.568,-0.072,0.967,-0.296,-1.007,-1.648,1.343,60.000,10633.000,1.000
10.195,26.466,16.801,16.043,26.891,24.726,20.968,18.176,-0.072,0.966,-0.298,-0.946,-1.465,1.404,60.000,10634.000,1.000
0.972,19.254,11.553,10.676,20.730,17.584,11.569,13.041,-0.076,0.966,-0.298,-0.793,-1.465,1.526,60.000,10635.000,1.000
-4.412,12.493,6.425,6.684,14.413,10.329,3.282,8.302,-0.080,0.965,-0.299,-0.671,-1.434,1.434,60.000,10636.000,1.000
-5.113,7.880,2.070,4.456,9.053,4.164,-2.972,4.629,-0.082,0.966,-0.295,-0.671,-1.526,1.434,60.000,10637.000,1.000
-6.191,3.910,-1.939,2.294,3.743,-1.061,-9.294,1.150,-0.083,0.969,-0.297,-0.702,-1.617,1.282,60.000,10638.000,1.000
-9.139,0.644,-4.706,0.385,-0.632,-4.132,-14.951,-1.504,-0.082,0.973,-0.299,-0.610,-1.678,1.282,60.000,10639.000,1.000
-9.157,0.964,-4.091,1.169,-0.979,-2.649,-16.065,-1.020,-0.081,0.975,-0.298,-0.671,-1.740,1.190,60.000,10640.000,1.000
-1.515,6.918,0.670,5.925,4.442,4.156,-10.232,3.698,-0.080,0.975,-0.297,-0.732,-1.862,1.099,60.000,10641.000,1.000
10.473,15.723,7.179,11.974,13.003,13.402,-0.327,10.313,-0.077,0.976,-0.299,-0.854,-1.953,1.160,60.000,10642.000,1.000
18.477,22.022,12.066,15.350,20.024,20.887,8.537,15.241,-0.076,0.975,-0.300,-1.038,-2.014,1.068,60.000,10643.000,1.000
18.567,23.423,14.040,15.054,23.098,24.509,13.799,17.063,-0.077,0.973,-0.293,-1.160,-2.014,1.099,60.000,10644.000,1.000
14.460,22.179,14.072,13.321,23.102,24.741,15.916,16.910,-0.077,0.971,-0.299,-1.160,-2.014,1.160,60.000,10645.000,1.000
11.990,21.394,13.048,12.094,21.480,22.534,15.885,15.943,-0.077,0.972,-0.301,-1.190,-2.075,1.160,60.000,10646.000,1.000
11.040,20.297,10.087,10.006,17.434,17.498,12.726,13.233,-0.078,0.971,-0.298,-1.129,-2.167,1.251,60.000,10647.000,1.000
7.761,16.344,4.821,5.202,10.127,9.987,6.037,7.998,-0.078,0.971,-0.300,-1.068,-2.197,1.282,60.000,10648.000,1.000
2.338,10.488,-0.120,-0.613,2.225,3.496,-0.705,2.525,-0.078,0.973,-0.301,-1.007,-2.228,1.282,60.000,10649.000,1.000
0.072,7.363,-0.734,-3.163,-1.297,2.712,-2.026,0.779,-0.079,0.974,-0.297,-1.068,-2.289,1.190,60.000,10650.000,1.000
5.815,10.716,4.615,0.177,2.317,9.287,5.108,4.567,-0.079,0.974,-0.295,-1.099,-2.502,1.190,60.000,10651.000,1.000
17.740,19.298,13.415,7.557,10.681,19.843,18.001,11.501,-0.081,0.976,-0.297,-1.282,-2.594,1.282,60.000,10652.000,1.000
29.068,28.128,21.102,14.565,18.379,28.629,30.242,17.142,-0.080,0.975,-0.296,-1.373,-2.594,1.373,60.000,10653.000,1.000
33.954,32.383,24.031,17.579,20.900,31.269,35.922,18.139,-0.081,0.975,-0.297,-1.587,-2.655,1.404,60.000,10654.000,1.000
30.907,30.132,20.993,15.474,16.835,26.521,32.191,13.651,-0.080,0.972,-0.298,-1.648,-2.808,1.465,60.000,10655.000,1.000
23.091,22.965,13.255,9.673,7.888,16.183,20.440,5.181,-0.080,0.970,-0.300,-1.678,-2.930,1.526,60.000,10656.000,1.000
14.144,13.573,3.118,2.189,-3.306,3.360,4.597,-5.101,-0.078,0.966,-0.301,-1.587,-3.052,1.617,60.000,10657.000,1.000
5.570,3.722,-7.222,-5.623,-14.790,-9.046,-10.969,-15.458,-0.079,0.968,-0.299,-1.373,-3.143,1.648,60.000,10658.000,1.000
-2.850,-5.892,-16.258,-13.100,-25.374,-19.140,-22.975,-24.739,-0.078,0.968,-0.296,-1.251,-3.204,1.801,60.000,10659.000,1.000
-11.253,-14.487,-22.940,-19.467,-33.742,-25.789,-29.628,-31.834,-0.078,0.967,-0.297,-1.190,-3.418,1.862,60.000,10660.000,1.000
-17.513,-20.144,-26.072,-22.979,-37.886,-28.013,-29.895,-35.181,-0.078,0.969,-0.297,-1.221,-3.448,1.892,60.000,10661.000,1.000
-19.278,-21.452,-25.192,-22.337,-36.745,-25.967,-24.742,-34.065,-0.079,0.970,-0.300,-1.160,-3.479,1.892,60.000,10662.000,1.000
-16.278,-18.990,-21.452,-18.104,-31.503,-21.539,-17.334,-29.649,-0.081,0.969,-0.301,-1.160,-3.632,2.045,60.000,10663.000,1.000
-11.026,-15.023,-17.100,-12.590,-24.941,-17.345,-11.276,-24.360,-0.080,0.969,-0.301,-1.099,-3.845,2.045,60.000,10664.000,1.000
-7.128,-11.607,-13.463,-7.848,-19.142,-14.506,-8.140,-19.792,-0.082,0.970,-0.297,-1.007,-4.059,2.106,60.000,10665.000,1.000
-4.746,-8.202,-9.213,-3.145,-13.281,-11.034,-5.440,-14.671,-0.084,0.971,-0.297,-0.977,-4.211,2.136,60.000,10666.000,1.000
-0.306,-2.475,-1.799,4.106,-4.848,-3.768,0.944,-6.125,-0.084,0.971,-0.297,-0.946,-4.333,2.197,60.000,10667.000,1.000
9.595,6.827,9.407,15.069,7.123,8.074,12.615,6.909,-0.083,0.975,-0.300,-1.038,-4.639,2.228,60.000,10668.000,1.000
22.875,17.207,21.129,26.712,19.698,20.945,26.103,21.168,-0.082,0.973,-0.297,-1.160,-4.669,2.228,60.000,10669.000,1.000
31.436,22.968,27.822,32.965,27.301,28.926,34.608,30.408,-0.083,0.973,-0.296,-1.160,-4.944,2.380,60.000,10670.000,1.000
29.121,20.030,26.017,29.930,26.293,28.241,33.765,30.347,-0.082,0.974,-0.298,-1.312,-5.096,2.472,60.000,10671.000,1.000
17.752,9.508,16.854,19.129,17.849,19.633,24.623,21.977,-0.081,0.975,-0.296,-1.282,-5.188,2.502,60.000,10672.000,1.000
5.542,-2.948,5.248,6.345,7.186,7.724,12.638,10.773,-0.079,0.972,-0.295,-1.373,-5.402,2.533,60.000,10673.000,1.000
-1.351,-12.069,-3.870,-3.213,-0.587,-2.452,3.111,2.196,-0.076,0.973,-0.299,-1.556,-5.707,2.594,60.000,10674.000,1.000
-4.442,-16.959,-8.773,-8.484,-4.166,-8.800,-2.839,-2.105,-0.075,0.972,-0.298,-1.587,-5.798,2.686,60.000,10675.000,1.000
-7.649,-19.263,-10.346,-10.868,-5.077,-11.718,-6.392,-3.355,-0.076,0.975,-0.295,-1.801,-5.981,2.899,60.000,10676.000,1.000
-11.105,-19.910,-10.002,-11.359,-4.903,-12.245,-8.157,-2.910,-0.076,0.973,-0.294,-2.045,-6.042,2.899,60.000,10677.000,1.000
-11.533,-18.600,-8.685,-9.961,-4.238,-11.449,-8.311,-1.199,-0.075,0.973,-0.293,-2.258,-6.134,2.960,60.000,10678.000,1.000
-8.632,-16.368,-7.648,-7.682,-4.106,-11.153,-9.075,0.779,-0.076,0.971,-0.295,-2.380,-6.256,2.991,60.000,10679.000,1.000
-7.906,-16.592,-8.715,-7.279,-6.484,-13.549,-14.350,0.642,-0.078,0.969,-0.299,-2.441,-6.317,3.174,60.000,10680.000,1.000
-13.450,-21.302,-12.572,-10.388,-11.936,-19.007,-24.724,-3.082,-0.076,0.968,-0.295,-2.472,-6.531,3.265,60.000,10681.000,1.000
-21.953,-28.281,-17.552,-15.400,-18.096,-25.131,-35.356,-8.910,-0.076,0.969,-0.294,-2.441,-6.653,3.357,60.000,10682.000,1.000
-25.083,-32.287,-20.210,-18.354,-20.772,-27.854,-39.045,-12.958,-0.076,0.969,-0.295,-2.411,-6.836,3.326,60.000,10683.000,1.000
-18.619,-29.810,-17.937,-16.590,-17.384,-24.463,-32.610,-12.212,-0.076,0.971,-0.298,-2.472,-7.050,3.448,60.000,10684.000,1.000
-7.570,-22.281,-11.133,-11.176,-9.307,-15.853,-20.065,-7.132,-0.079,0.969,-0.295,-2.441,-7.111,3.479,60.000,10685.000,1.000
0.693,-13.607,-2.356,-4.868,-0.081,-5.185,-7.704,-0.380,-0.081,0.969,-0.297,-2.533,-7.385,3.510,60.000,10686.000,1.000
4.326,-6.414,5.655,0.561,7.440,4.560,1.590,5.643,-0.083,0.972,-0.298,-2.686,-7.507,3.632,60.000,10687.000,1.000
7.088,-0.953,11.145,4.762,12.150,11.674,8.880,9.705,-0.082,0.973,-0.297,-2.747,-7.690,3.632,60.000,10688.000,1.000
10.898,2.528,12.961,6.947,13.359,14.697,14.416,10.574,-0.081,0.974,-0.295,-2.747,-7.904,3.632,60.000,10689.000,1.000
11.886,2.545,10.619,5.515,10.212,12.289,15.175,6.899,-0.081,0.973,-0.294,-2.869,-8.148,3.662,60.000,10690.000,1.000
7.563,-0.507,5.770,1.041,3.882,5.567,9.863,-0.282,-0.081,0.973,-0.295,-3.082,-8.453,3.693,60.000,10691.000,1.000
2.479,-2.961,1.903,-2.809,-1.887,-1.511,2.480,-6.978,-0.082,0.973,-0.293,-3.265,-8.636,3.693,60.000,10692.000,1.000
3.984,-1.298,1.591,-2.455,-3.810,-5.226,-1.015,-9.470,-0.080,0.975,-0.295,-3.387,-8.728,3.754,60.000,10693.000,1.000
12.295,3.101,3.705,1.404,-2.785,-5.684,0.444,-8.218,-0.080,0.975,-0.294,-3.540,-8.911,3.693,60.000,10694.000,1.000
18.402,4.705,4.562,4.400,-2.968,-6.028,2.001,-7.149,-0.082,0.974,-0.296,-3.693,-9.125,3.937,60.000,10695.000,1.000
14.963,0.359,2.292,4.029,-6.353,-7.881,0.227,-8.578,-0.084,0.973,-0.295,-3.754,-9.399,3.937,60.000,10696.000,1.000
4.485,-7.671,-1.423,2.199,-10.373,-9.728,-2.632,-10.793,-0.083,0.973,-0.296,-3.937,-9.583,3.662,60.000,10697.000,1.000
-3.510,-14.478,-3.299,2.826,-10.532,-9.057,-1.529,-10.194,-0.083,0.973,-0.295,-3.937,-9.735,3.571,60.000,10698.000,1.000
-3.035,-17.437,-1.862,7.247,-5.299,-5.414,5.343,-5.461,-0.082,0.976,-0.294,-3.998,-9.857,3.571,60.000,10699.000,1.000
1.928,-18.205,1.025,12.303,1.664,-1.355,13.820,0.449,-0.083,0.977,-0.292,-4.150,-10.040,3.723,60.000,10700.000,1.000
3.681,-19.533,2.159,13.638,4.852,-0.313,17.793,2.998,-0.081,0.974,-0.297,-4.425,-10.223,3.815,60.000,10701.000,1.000
-0.938,-22.174,-0.534,9.282,1.325,-4.228,13.936,-0.201,-0.080,0.972,-0.298,-4.578,-10.406,3.845,60.000,10702.000,1.000
-8.864,-24.736,-6.867,0.607,-7.639,-12.236,3.786,-7.803,-0.079,0.973,-0.297,-4.608,-10.437,3.906,60.000,10703.000,1.000
-16.233,-26.183,-15.161,-9.593,-18.398,-21.628,-8.492,-16.420,-0.080,0.971,-0.294,-4.547,-10.620,4.028,60.000,10704.000,1.000
-23.186,-27.643,-23.674,-19.235,-27.665,-29.921,-19.814,-23.324,-0.079,0.971,-0.292,-4.547,-10.712,4.364,60.000,10705.000,1.000
-30.367,-30.020,-30.472,-26.296,-32.718,-34.786,-27.628,-26.586,-0.080,0.970,-0.290,-4.700,-10.895,4.517,60.000,10706.000,1.000
-34.681,-31.217,-32.831,-28.004,-30.875,-33.299,-28.520,-24.085,-0.082,0.972,-0.292,-4.669,-10.986,4.730,60.000,10707.000,1.000
-30.762,-27.269,-28.349,-22.192,-20.752,-23.539,-19.919,-14.385,-0.083,0.976,-0.290,-4.608,-11.169,4.700,60.000,10708.000,1.000
-18.158,-17.412,-18.047,-10.540,-5.221,-8.242,-4.627,0.244,-0.083,0.979,-0.289,-4.700,-11.383,4.944,60.000,10709.000,1.000
-4.709,-6.219,-7.028,0.951,8.590,5.272,8.725,13.477,-0.085,0.979,-0.292,-4.974,-11.658,5.280,60.000,10710.000,1.000
0.832,0.778,-0.911,6.292,13.987,10.446,12.496,19.212,-0.086,0.977,-0.293,-5.127,-11.871,5.585,60.000,10711.000,1.000
-3.966,1.065,-2.668,3.090,8.530,5.518,5.235,15.129,-0.083,0.974,-0.290,-5.127,-12.054,5.829,60.000,10712.000,1.000
-14.479,-4.044,-11.408,-6.680,-5.053,-6.029,-8.029,3.619,-0.080,0.974,-0.286,-5.096,-12.177,6.073,60.000,10713.000,1.000
-24.135,-10.669,-22.687,-18.253,-20.366,-17.615,-19.457,-9.580,-0.078,0.976,-0.289,-5.188,-12.421,6.439,60.000,10714.000,1.000
-29.603,-14.584,-30.459,-26.550,-30.305,-22.933,-23.170,-18.262,-0.078,0.980,-0.285,-5.249,-12.634,6.775,60.000,10715.000,1.000
-29.968,-12.833,-30.197,-28.008,-30.087,-18.762,-17.192,-18.529,-0.078,0.981,-0.283,-5.402,-12.695,7.080,60.000,10716.000,1.000
-25.203,-5.143,-21.996,-22.437,-20.101,-6.975,-4.423,-10.866,-0.077,0.980,-0.287,-5.554,-12.695,7.660,60.000,10717.000,1.000
-16.015,6.082,-10.435,-13.057,-5.851,6.310,8.629,0.377,-0.080,0.980,-0.286,-5.768,-13.000,7.874,60.000,10718.000,1.000
-5.461,16.586,-1.365,-4.734,5.529,14.515,15.404,9.648,-0.073,0.977,-0.289,-5.829,-13.153,7.965,60.000,10719.000,1.000
0.859,22.018,1.729,-1.421,9.634,14.640,12.857,13.144,-0.071,0.975,-0.287,-5.829,-13.306,8.392,60.000,10720.000,1.000
-0.405,20.973,-0.565,-3.704,6.922,8.607,3.454,10.693,-0.070,0.972,-0.289,-5.768,-13.214,8.942,60.000,10721.000,1.000
-7.686,15.627,-5.170,-9.174,0.831,0.732,-7.178,4.892,-0.070,0.970,-0.285,-5.890,-13.275,9.399,60.000,10722.000,1.000
-15.748,9.916,-8.896,-14.269,-4.755,-5.146,-13.792,-0.764,-0.069,0.971,-0.286,-5.737,-13.428,9.338,60.000,10723.000,1.000
-20.141,6.417,-10.118,-16.426,-7.231,-7.293,-14.553,-3.784,-0.066,0.972,-0.289,-5.676,-13.367,9.399,60.000,10724.000,1.000
-20.793,4.796,-9.063,-15.269,-6.335,-6.082,-11.983,-3.769,-0.063,0.970,-0.288,-5.707,-13.306,9.735,60.000,10725.000,1.000
-19.453,4.242,-6.494,-11.566,-3.732,-2.387,-9.709,-1.504,-0.063,0.970,-0.288,-5.585,-13.306,9.857,60.000,10726.000,1.000
-17.044,5.284,-2.900,-6.440,-1.950,2.941,-9.529,1.968,-0.059,0.971,-0.284,-5.432,-13.214,9.735,60.000,10727.000,1.000
-13.177,8.996,1.465,-1.008,-2.374,8.717,-10.452,5.687,-0.059,0.972,-0.283,-5.219,-13.245,9.430,60.000,10728.000,1.000
-8.089,15.004,5.838,3.319,-4.320,12.971,-10.570,8.385,-0.053,0.972,-0.282,-5.035,-13.000,9.369,60.000,10729.000,1.000
-4.368,21.045,8.671,4.716,-6.444,13.389,-9.848,8.304,-0.052,0.973,-0.283,-4.913,-12.787,9.308,60.000,10730.000,1.000
-4.052,25.151,8.947,2.392,-8.067,9.291,-9.460,4.604,-0.050,0.972,-0.283,-4.974,-12.634,9.369,60.000,10731.000,1.000
-6.256,27.126,7.389,-2.662,-9.467,2.932,-9.935,-1.356,-0.051,0.973,-0.283,-4.974,-12.238,9.338,60.000,10732.000,1.000
-6.905,29.201,6.705,-7.651,-10.626,-0.916,-9.588,-5.966,-0.051,0.973,-0.283,-4.944,-11.993,9.033,60.000,10733.000,1.000
-1.846,34.785,9.655,-9.500,-10.454,1.810,-5.940,-5.860,-0.049,0.975,-0.282,-4.974,-11.932,8.514,60.000,10734.000,1.000
8.919,45.361,16.427,-7.178,-7.606,10.849,0.987,-0.955,-0.046,0.976,-0.284,-4.852,-11.566,7.996,60.000,10735.000,1.000
22.085,58.997,24.678,-1.709,-1.256,22.174,9.021,6.009,-0.045,0.976,-0.282,-4.700,-11.261,7.751,60.000,10736.000,1.000
33.376,70.930,31.495,4.976,7.933,31.310,15.703,12.027,-0.044,0.975,-0.282,-4.761,-10.925,7.507,60.000,10737.000,1.000
40.125,76.824,35.415,11.298,17.717,36.120,19.728,15.779,-0.043,0.977,-0.280,-4.822,-10.681,7.141,60.000,10738.000,1.000
42.122,75.862,36.469,15.990,25.055,36.671,20.670,17.251,-0.043,0.975,-0.281,-4.822,-10.284,6.866,60.000,10739.000,1.000
40.585,70.871,35.246,17.857,27.734,33.916,18.408,16.646,-0.041,0.974,-0.282,-4.852,-9.949,6.531,60.000,10740.000,1.000
38.290,66.310,32.892,17.028,26.234,29.502,14.413,14.773,-0.040,0.973,-0.281,-4.822,-9.552,6.134,60.000,10741.000,1.000
36.861,64.062,30.238,14.549,22.511,24.719,10.572,12.533,-0.036,0.973,-0.276,-4.913,-9.155,5.890,60.000,10742.000,1.000
35.030,61.550,26.870,11.133,17.732,19.506,7.228,9.964,-0.039,0.973,-0.279,-4.974,-8.575,5.829,60.000,10743.000,1.000
30.974,54.884,21.865,7.189,12.291,13.274,3.450,6.683,-0.041,0.975,-0.283,-5.096,-8.270,5.310,60.000,10744.000,1.000
25.431,43.530,15.591,3.804,7.507,6.774,-0.820,3.246,-0.041,0.975,-0.282,-5.066,-8.057,4.730,60.000,10745.000,1.000
22.250,31.305,10.298,2.996,6.169,2.576,-2.927,1.500,-0.040,0.975,-0.279,-4.913,-7.782,4.150,60.000,10746.000,1.000
23.169,21.729,7.827,5.446,9.700,2.274,-0.472,2.447,-0.041,0.976,-0.275,-4.822,-7.294,3.510,60.000,10747.000,1.000
25.150,14.655,7.648,9.240,15.806,4.486,5.231,4.788,-0.040,0.979,-0.270,-4.791,-6.836,3.021,60.000,10748.000,1.000
23.839,7.897,7.399,11.194,19.641,6.172,9.686,5.833,-0.042,0.981,-0.273,-4.883,-6.561,2.594,60.000,10749.000,1.000
18.142,0.672,5.135,9.288,17.429,5.361,8.975,3.718,-0.042,0.980,-0.278,-4.883,-6.134,2.106,60.000,10750.000,1.000
11.837,-4.979,1.196,4.407,9.526,2.616,3.576,-0.851,-0.041,0.979,-0.277,-4.822,-5.829,1.678,60.000,10751.000,1.000
8.723,-6.943,-2.510,-1.014,-0.443,-0.280,-2.984,-5.514,-0.042,0.978,-0.275,-4.822,-5.432,1.312,60.000,10752.000,1.000
9.143,-5.135,-3.999,-4.718,-8.362,-1.704,-7.191,-7.941,-0.043,0.978,-0.274,-4.761,-4.944,0.946,60.000,10753.000,1.000
11.423,-0.996,-2.378,-5.482,-11.811,-0.807,-7.274,-7.045,-0.044,0.977,-0.269,-4.761,-4.517,0.397,60.000,10754.000,1.000
14.471,3.698,1.723,-3.304,-10.481,2.243,-3.660,-3.329,-0.046,0.975,-0.269,-4.700,-4.150,0.031,60.000,10755.000,1.000
19.485,8.359,7.110,1.509,-4.787,6.937,2.503,2.206,-0.048,0.975,-0.268,-4.608,-3.845,-0.397,60.000,10756.000,1.000
26.532,13.070,12.519,8.011,4.151,12.379,9.430,8.275,-0.051,0.974,-0.271,-4.486,-3.510,-0.641,60.000,10757.000,1.000
32.198,17.390,16.705,14.260,13.974,17.240,14.945,13.152,-0.054,0.976,-0.273,-4.333,-3.265,-0.793,60.000,10758.000,1.000
32.790,20.388,18.939,18.420,22.012,20.521,18.082,15.565,-0.057,0.977,-0.274,-4.211,-3.082,-1.038,60.000,10759.000,1.000
28.716,21.607,19.642,20.253,27.033,22.364,20.133,15.939,-0.057,0.977,-0.270,-4.120,-2.960,-1.251,60.000,10760.000,1.000
24.899,21.549,19.959,21.180,29.784,23.657,23.682,15.997,-0.060,0.977,-0.270,-4.059,-2.777,-1.404,60.000,10761.000,1.000
24.122,19.727,19.681,21.645,30.852,23.801,28.288,15.944,-0.060,0.978,-0.266,-4.059,-2.594,-1.617,60.000,10762.000,1.000
23.758,14.377,17.080,20.311,29.516,20.667,29.725,13.863,-0.061,0.977,-0.266,-3.967,-2.441,-1.617,60.000,10763.000,1.000
20.085,4.895,11.197,16.143,24.960,13.319,24.719,8.427,-0.062,0.977,-0.265,-3.815,-2.197,-1.648,60.000,10764.000,1.000
12.905,-6.734,3.362,10.004,17.626,3.630,14.702,0.911,-0.063,0.975,-0.266,-3.693,-2.258,-1.617,60.000,10765.000,1.000
6.048,-16.810,-3.589,4.369,9.647,-4.854,4.888,-5.608,-0.063,0.976,-0.264,-3.754,-2.228,-1.617,60.000,10766.000,1.000
2.210,-22.823,-7.771,1.064,3.404,-9.906,-1.127,-9.169,-0.066,0.976,-0.265,-3.601,-2.106,-1.648,60.000,10767.000,1.000
0.403,-24.760,-9.197,0.253,0.166,-11.764,-3.760,-10.045,-0.067,0.978,-0.264,-3.357,-2.075,-1.587,60.000,10768.000,1.000
-1.545,-24.388,-8.819,1.195,-0.174,-11.880,-4.702,-9.373,-0.069,0.979,-0.266,-3.204,-2.045,-1.434,60.000,10769.000,1.000
-4.345,-23.993,-7.386,3.170,1.438,-11.412,-4.293,-7.622,-0.069,0.979,-0.265,-3.082,-1.953,-1.373,60.000,10770.000,1.000
-6.515,-24.850,-5.180,5.939,4.188,-10.773,-1.957,-4.511,-0.070,0.979,-0.261,-2.899,-2.075,-1.221,60.000,10771.000,1.000
-7.775,-27.454,-3.079,8.551,7.140,-10.559,0.743,-0.850,-0.070,0.979,-0.262,-2.716,-2.136,-1.068,60.000,10772.000,1.000
-9.803,-31.656,-2.462,9.505,9.355,-11.394,0.834,1.369,-0.072,0.981,-0.263,-2.625,-2.136,-0.946,60.000,10773.000,1.000
-13.136,-36.332,-3.825,8.404,10.488,-13.126,-2.332,1.173,-0.072,0.980,-0.263,-2.563,-2.045,-0.793,60.000,10774.000,1.000
-16.086,-40.150,-6.228,6.354,10.594,-14.973,-6.203,-0.297,-0.070,0.981,-0.260,-2.441,-2.136,-0.580,60.000,10775.000,1.000
-16.438,-42.583,-8.270,4.768,9.690,-16.195,-7.368,-1.175,-0.071,0.983,-0.258,-2.380,-2.106,-0.397,60.000,10776.000,1.000
-15.145,-44.678,-9.754,3.507,7.380,-17.055,-5.553,-1.239,-0.070,0.985,-0.258,-2.441,-2.167,-0.153,60.000,10777.000,1.000
-15.167,-47.497,-11.185,1.700,3.871,-18.084,-3.361,-1.407,-0.068,0.985,-0.261,-2.441,-2.167,0.092,60.000,10778.000,1.000
-17.384,-50.631,-12.404,-0.505,0.479,-19.071,-2.751,-1.736,-0.066,0.986,-0.262,-2.441,-2.258,0.427,60.000,10779.000,1.000
-20.107,-53.109,-12.785,-2.164,-1.691,-19.593,-3.714,-1.324,-0.068,0.986,-0.263,-2.502,-2.228,0.671,60.000,10780.000,1.000
-20.507,-54.057,-12.005,-2.340,-2.316,-19.495,-4.843,0.611,-0.067,0.986,-0.262,-2.411,-2.167,0.793,60.000,10781.000,1.000
-17.873,-53.147,-10.656,-1.226,-1.713,-19.104,-5.442,3.471,-0.066,0.983,-0.263,-2.350,-2.167,1.068,60.000,10782.000,1.000
-13.953,-50.344,-9.585,0.210,-0.108,-18.476,-5.676,5.863,-0.068,0.983,-0.259,-2.289,-2.197,1.465,60.000,10783.000,1.000
-10.604,-45.889,-8.946,1.430,2.597,-16.804,-5.278,7.233,-0.069,0.981,-0.263,-2.136,-2.045,1.617,60.000,10784.000,1.000
-9.010,-41.181,-8.501,2.381,5.975,-13.449,-3.874,8.084,-0.068,0.982,-0.262,-2.167,-2.014,1.678,60.000,10785.000,1.000
-9.320,-38.231,-8.252,3.132,9.047,-9.006,-1.448,9.198,-0.070,0.982,-0.262,-2.014,-1.953,1.709,60.000,10786.000,1.000
-11.763,-38.249,-8.509,3.458,11.081,-5.042,1.213,10.832,-0.071,0.982,-0.261,-1.953,-2.106,1.892,60.000,10787.000,1.000
-16.154,-40.164,-8.900,3.569,12.522,-2.336,3.762,13.056,-0.071,0.982,-0.260,-2.014,-2.075,1.953,60.000,10788.000,1.000
-21.177,-41.619,-8.553,4.102,14.160,-0.660,6.757,15.665,-0.067,0.981,-0.259,-1.953,-2.106,2.075,60.000,10789.000,1.000
-25.885,-41.885,-7.637,4.819,15.326,-0.290,9.669,17.339,-0.066,0.981,-0.261,-1.984,-2.106,2.136,60.000,10790.000,1.000
-29.756,-42.042,-7.420,4.682,14.296,-2.013,10.646,16.348,-0.064,0.979,-0.262,-1.923,-2.045,2.136,60.000,10791.000,1.000
-33.230,-43.446,-9.200,2.403,9.785,-6.214,7.691,11.643,-0.063,0.977,-0.263,-1.953,-2.167,2.106,60.000,10792.000,1.000
-37.004,-46.217,-13.010,-2.485,2.267,-12.041,0.767,3.752,-0.065,0.974,-0.263,-1.923,-2.014,2.106,60.000,10793.000,1.000
-40.511,-49.016,-17.340,-8.791,-6.099,-17.745,-7.666,-5.070,-0.065,0.974,-0.262,-1.801,-1.953,2.075,60.000,10794.000,1.000
-42.180,-49.998,-20.011,-14.098,-12.886,-21.728,-14.644,-11.872,-0.063,0.977,-0.264,-1.678,-1.892,1.862,60.000,10795.000,1.000
-40.003,-47.483,-19.267,-15.952,-16.390,-22.814,-17.949,-14.457,-0.064,0.975,-0.263,-1.556,-1.831,1.831,60.000,10796.000,1.000
-34.110,-41.455,-15.192,-14.043,-16.540,-20.749,-17.356,-13.122,-0.064,0.973,-0.264,-1.343,-1.892,1.770,60.000,10797.000,1.000
-27.080,-33.847,-9.808,-10.378,-14.680,-16.257,-14.307,-10.422,-0.063,0.976,-0.267,-1.221,-1.862,1.617,60.000,10798.000,1.000
-21.557,-27.176,-5.707,-7.326,-12.585,-10.798,-10.520,-9.099,-0.062,0.977,-0.263,-1.068,-1.678,1.465,60.000,10799.000,1.000
-18.759,-23.046,-4.223,-5.800,-11.559,-5.972,-7.169,-10.134,-0.061,0.979,-0.264,-1.099,-1.740,1.373,60.000,10800.000,1.000
-17.281,-21.023,-4.222,-4.344,-11.328,-2.094,-3.703,-11.984,-0.061,0.983,-0.269,-1.068,-1.587,1.221,60.000,10801.000,1.000
-15.067,-19.953,-3.494,-0.789,-10.679,1.690,0.910,-12.355,-0.062,0.985,-0.264,-1.129,-1.404,0.977,60.000,10802.000,1.000
-11.074,-19.202,-0.771,5.700,-8.878,6.160,6.519,-10.185,-0.063,0.985,-0.264,-1.221,-1.465,0.946,60.000,10803.000,1.000
-5.439,-18.456,3.415,13.596,-6.526,10.969,11.611,-6.241,-0.061,0.986,-0.262,-1.312,-1.373,0.885,60.000,10804.000,1.000
-0.062,-17.883,7.029,19.337,-5.526,14.500,13.809,-2.795,-0.060,0.984,-0.260,-1.617,-1.160,0.885,60.000,10805.000,1.000
2.886,-17.917,7.925,19.614,-7.650,15.082,11.713,-2.201,-0.057,0.981,-0.264,-1.495,-1.068,0.732,60.000,10806.000,1.000
2.145,-18.521,5.167,13.098,-13.256,11.941,5.660,-5.541,-0.058,0.978,-0.266,-1.343,-0.977,0.732,60.000,10807.000,1.000
-0.950,-17.856,0.342,1.905,-20.139,6.302,-1.641,-11.265,-0.059,0.974,-0.265,-1.373,-0.916,0.763,60.000,10808.000,1.000
-2.576,-13.236,-2.957,-8.599,-24.224,1.344,-5.879,-15.594,-0.060,0.971,-0.266,-1.221,-0.763,0.702,60.000,10809.000,1.000
-0.104,-4.274,-2.238,-13.403,-22.900,-0.246,-4.571,-15.602,-0.061,0.971,-0.266,-1.007,-0.549,0.580,60.000,10810.000,1.000
6.282,6.662,1.798,-11.354,-17.102,1.644,1.367,-11.443,-0.062,0.970,-0.265,-0.885,-0.488,0.519,60.000,10811.000,1.000
13.449,16.077,5.978,-5.875,-10.472,4.568,8.376,-6.054,-0.062,0.973,-0.265,-0.732,-0.458,0.549,60.000,10812.000,1.000
17.642,21.594,7.486,-1.751,-6.274,6.004,13.173,-2.554,-0.059,0.977,-0.265,-0.763,-0.427,0.488,60.000,10813.000,1.000
17.122,22.909,5.597,-1.610,-5.545,5.255,14.636,-2.202,-0.056,0.982,-0.267,-0.824,-0.305,0.549,60.000,10814.000,1.000
12.057,20.859,1.222,-5.363,-7.877,2.933,12.823,-4.524,-0.054,0.984,-0.265,-0.916,-0.122,0.641,60.000,10815.000,1.000
4.763,17.280,-3.698,-10.873,-11.890,0.255,8.861,-7.743,-0.053,0.986,-0.268,-1.007,-0.031,0.671,60.000,10816.000,1.000
-1.898,14.407,-7.256,-15.768,-15.698,-1.879,4.347,-9.956,-0.053,0.988,-0.268,-1.129,0.214,0.641,60.000,10817.000,1.000
-6.290,13.551,-8.852,-18.974,-17.862,-3.666,0.280,-10.522,-0.054,0.990,-0.266,-1.282,0.366,0.702,60.000,10818.000,1.000
-8.451,14.105,-9.573,-20.907,-18.334,-6.289,-3.446,-10.389,-0.056,0.989,-0.266,-1.373,0.519,0.702,60.000,10819.000,1.000
-9.717,14.191,-10.964,-22.488,-18.210,-10.700,-7.637,-10.898,-0.058,0.988,-0.269,-1.556,0.702,0.488,60.000,10820.000,1.000
-10.259,13.279,-13.088,-23.578,-17.998,-16.093,-11.864,-11.993,-0.063,0.986,-0.267,-1.678,0.763,0.427,60.000,10821.000,1.000
-9.184,12.813,-14.600,-23.360,-17.109,-20.288,-14.497,-12.485,-0.066,0.983,-0.266,-1.801,0.916,0.397,60.000,10822.000,1.000
-5.544,14.933,-13.833,-21.075,-14.361,-20.865,-13.673,-11.097,-0.067,0.984,-0.264,-1.770,0.824,0.275,60.000,10823.000,1.000
1.025,20.665,-9.881,-16.430,-9.031,-16.538,-8.679,-7.201,-0.069,0.983,-0.265,-1.831,0.702,0.183,60.000,10824.000,1.000
9.003,28.536,-3.570,-10.340,-2.160,-8.489,-1.583,-1.565,-0.071,0.980,-0.263,-1.923,0.549,0.183,60.000,10825.000,1.000
15.988,35.628,2.809,-4.664,3.737,0.153,4.102,3.801,-0.071,0.980,-0.266,-1.953,0.427,0.092,60.000,10826.000,1.000
19.420,39.260,6.534,-1.631,5.900,5.828,5.320,6.332,-0.071,0.980,-0.266,-1.831,0.275,-0.153,60.000,10827.000,1.000
18.084,38.721,6.219,-2.354,3.346,6.723,1.426,4.637,-0.069,0.980,-0.266,-1.923,0.092,-0.183,60.000,10828.000,1.000
13.304,35.698,2.952,-5.713,-2.041,4.030,-4.962,-0.110,-0.068,0.979,-0.264,-1.892,0.000,-0.214,60.000,10829.000,1.000
7.437,32.612,-0.546,-9.206,-6.948,0.758,-10.085,-4.969,-0.066,0.979,-0.263,-1.831,0.000,-0.336,60.000,10830.000,1.000
3.182,31.455,-1.622,-10.271,-8.639,-0.310,-11.166,-7.047,-0.064,0.979,-0.262,-1.709,0.000,-0.305,60.000,10831.000,1.000
2.232,32.987,0.634,-7.929,-6.496,1.652,-8.180,-5.481,-0.063,0.978,-0.262,-1.831,0.061,-0.336,60.000,10832.000,1.000
4.633,36.516,5.023,-3.310,-2.126,5.394,-3.683,-1.928,-0.063,0.981,-0.265,-1.831,0.000,-0.366,60.000,10833.000,1.000
8.936,39.996,9.002,1.004,1.550,8.582,-1.016,0.599,-0.061,0.981,-0.266,-1.801,0.031,-0.153,60.000,10834.000,1.000
12.723,41.088,10.422,2.671,2.083,9.599,-2.209,-0.016,-0.059,0.980,-0.261,-1.740,0.061,-0.153,60.000,10835.000,1.000
15.478,39.682,9.584,1.949,-0.131,9.441,-5.602,-2.718,-0.059,0.978,-0.263,-1.678,0.244,-0.122,60.000,10836.000,1.000
18.327,37.703,8.573,1.107,-2.358,10.511,-7.431,-4.384,-0.061,0.977,-0.265,-1.648,0.397,-0.061,60.000,10837.000,1.000
21.943,36.848,8.948,1.991,-2.212,13.875,-5.419,-2.915,-0.057,0.977,-0.263,-1.587,0.397,0.061,60.000,10838.000,1.000
25.404,36.934,10.364,4.325,0.306,18.148,-0.519,0.959,-0.060,0.975,-0.263,-1.495,0.580,0.122,60.000,10839.000,1.000
26.292,36.050,11.277,6.039,3.155,20.976,4.148,4.546,-0.058,0.976,-0.263,-1.434,0.671,0.214,60.000,10840.000,1.000
23.793,33.100,10.932,5.835,4.862,21.455,6.649,6.040,-0.056,0.976,-0.264,-1.312,0.763,0.397,60.000,10841.000,1.000
19.296,28.801,9.629,4.143,5.478,19.912,6.756,5.540,-0.058,0.978,-0.266,-1.190,0.854,0.336,60.000,10842.000,1.000
14.899,24.704,8.021,2.371,5.805,16.839,5.016,4.230,-0.060,0.978,-0.265,-1.160,1.007,0.397,60.000,10843.000,1.000
12.103,21.910,6.794,1.835,6.652,12.998,2.695,3.388,-0.058,0.978,-0.265,-1.099,1.282,0.488,60.000,10844.000,1.000
10.833,20.373,6.444,2.933,8.435,9.581,1.338,3.744,-0.056,0.979,-0.264,-1.129,1.312,0.519,60.000,10845.000,1.000
10.848,19.637,7.088,5.431,11.211,7.682,2.152,5.452,-0.057,0.978,-0.264,-1.068,1.373,0.488,60.000,10846.000,1.000
11.630,18.865,7.885,8.336,14.099,6.989,4.283,7.646,-0.054,0.979,-0.263,-1.099,1.556,0.549,60.000,10847.000,1.000
12.260,17.141,7.635,10.450,15.678,6.121,5.353,9.034,-0.055,0.979,-0.265,-1.160,1.648,0.671,60.000,10848.000,1.000
12.180,14.201,5.982,11.281,15.119,4.105,3.855,9.207,-0.058,0.978,-0.265,-1.099,1.678,0.854,60.000,10849.000,1.000
10.940,10.320,3.502,10.923,12.467,0.923,-0.094,8.629,-0.056,0.976,-0.264,-0.977,1.801,0.732,60.000,10850.000,1.000
9.030,6.327,1.146,9.894,8.645,-2.438,-4.738,8.034,-0.055,0.974,-0.265,-0.885,1.953,0.885,60.000,10851.000,1.000
7.175,2.982,-0.584,8.534,4.800,-4.783,-8.275,7.714,-0.056,0.976,-0.264,-0.854,1.953,0.793,60.000,10852.000,1.000
6.094,1.024,-1.403,7.172,2.117,-5.088,-9.700,7.903,-0.055,0.977,-0.268,-0.702,2.075,0.885,60.000,10853.000,1.000
6.793,1.368,-0.922,6.288,1.640,-2.879,-8.629,9.090,-0.053,0.979,-0.266,-0.702,2.197,0.824,60.000,10854.000,1.000
9.116,4.019,0.753,5.770,3.270,0.947,-5.873,11.111,-0.053,0.980,-0.267,-0.580,2.228,0.702,60.000,10855.000,1.000
11.960,7.738,3.037,5.258,5.859,4.743,-2.587,13.066,-0.055,0.980,-0.266,-0.641,2.350,0.732,60.000,10856.000,1.000
13.222,10.103,4.850,4.242,7.573,6.862,-0.038,13.525,-0.058,0.980,-0.268,-0.671,2.411,0.732,60.000,10857.000,1.000
10.718,8.579,4.701,2.117,6.453,6.018,0.312,11.039,-0.059,0.980,-0.266,-0.671,2.350,0.671,60.000,10858.000,1.000
4.286,2.485,1.719,-1.142,1.690,1.865,-2.425,5.378,-0.060,0.980,-0.264,-0.610,2.411,0.702,60.000,10859.000,1.000
-3.551,-5.779,-2.791,-4.184,-5.035,-3.990,-7.508,-1.328,-0.059,0.978,-0.265,-0.671,2.380,0.641,60.000,10860.000,1.000
-8.101,-11.353,-5.308,-4.331,-9.708,-7.900,-11.804,-5.101,-0.059,0.977,-0.267,-0.671,2.350,0.519,60.000,10861.000,1.000
-6.752,-10.927,-3.267,-0.271,-9.331,-7.153,-12.460,-3.473,-0.060,0.974,-0.271,-0.549,2.380,0.366,60.000,10862.000,1.000
-1.166,-5.211,2.668,6.473,-4.283,-2.244,-9.220,2.458,-0.059,0.975,-0.269,-0.580,2.197,0.153,60.000,10863.000,1.000
5.060,2.576,9.524,12.909,2.640,4.089,-3.857,9.275,-0.062,0.976,-0.269,-0.427,2.167,0.061,60.000,10864.000,1.000
8.326,8.740,13.935,16.097,8.010,8.787,0.798,13.290,-0.063,0.979,-0.268,-0.488,2.106,-0.031,60.000,10865.000,1.000
6.920,10.845,13.847,14.589,9.484,10.008,2.641,12.463,-0.063,0.980,-0.269,-0.458,2.197,-0.092,60.000,10866.000,1.000
0.927,8.268,9.149,8.819,6.534,7.344,0.978,7.046,-0.065,0.981,-0.268,-0.488,2.136,-0.092,60.000,10867.000,1.000
-7.844,2.538,1.837,1.101,0.780,2.021,-3.096,-0.532,-0.064,0.981,-0.267,-0.458,2.045,-0.153,60.000,10868.000,1.000
-15.954,-3.174,-4.795,-5.246,-4.619,-3.295,-6.880,-6.749,-0.063,0.981,-0.266,-0.458,1.953,-0.122,60.000,10869.000,1.000
-20.866,-6.536,-8.385,-8.145,-7.297,-6.330,-8.378,-9.465,-0.063,0.981,-0.267,-0.458,1.831,-0.244,60.000,10870.000,1.000
-22.070,-7.620,-8.833,-7.706,-7.179,-6.726,-7.549,-9.230,-0.061,0.982,-0.264,-0.397,1.770,-0.183,60.000,10871.000,1.000
-20.931,-8.261,-7.595,-5.462,-5.808,-5.806,-5.844,-8.176,-0.063,0.984,-0.267,-0.488,1.740,-0.153,60.000,10872.000,1.000
-18.522,-9.425,-5.557,-2.406,-4.020,-4.473,-3.907,-7.380,-0.063,0.984,-0.264,-0.549,1.709,-0.214,60.000,10873.000,1.000
-14.578,-10.373,-2.588,1.357,-1.411,-2.544,-0.872,-6.308,-0.062,0.984,-0.267,-0.580,1.556,-0.153,60.000,10874.000,1.000
-9.801,-10.728,0.927,5.007,1.805,-0.336,3.215,-4.771,-0.063,0.983,-0.268,-0.641,1.526,-0.122,60.000,10875.000,1.000
-5.573,-10.790,4.036,7.334,4.660,1.251,7.215,-3.292,-0.065,0.980,-0.271,-0.580,1.465,-0.031,60.000,10876.000,1.000
-2.543,-10.341,6.354,8.121,6.771,1.934,10.137,-2.043,-0.065,0.983,-0.268,-0.671,1.343,0.031,60.000,10877.000,1.000
0.006,-8.218,8.460,8.486,8.862,2.545,11.832,-0.420,-0.066,0.983,-0.268,-0.641,1.160,0.000,60.000,10878.000,1.000
2.698,-4.110,10.530,9.196,11.293,3.672,12.400,1.751,-0.066,0.978,-0.266,-0.671,1.129,0.092,60.000,10879.000,1.000
3.961,-0.086,11.368,9.237,12.798,4.528,11.368,3.296,-0.065,0.976,-0.262,-0.732,0.946,0.122,60.000,10880.000,1.000
2.422,1.731,9.879,7.499,12.076,4.252,9.011,3.168,-0.065,0.976,-0.260,-0.641,0.824,0.214,60.000,10881.000,1.000
-1.485,1.150,6.251,4.160,9.177,2.854,6.268,1.482,-0.066,0.976,-0.265,-0.610,0.732,0.305,60.000,10882.000,1.000
-6.013,-0.459,1.816,0.509,5.384,1.095,3.919,-0.781,-0.066,0.976,-0.266,-0.641,0.671,0.305,60.000,10883.000,1.000
-9.153,-1.635,-1.948,-2.076,2.216,-0.180,2.417,-2.601,-0.064,0.977,-0.268,-0.610,0.549,0.366,60.000,10884.000,1.000
-10.541,-2.330,-4.508,-3.302,0.270,-0.912,1.373,-3.709,-0.060,0.977,-0.270,-0.610,0.275,0.549,60.000,10885.000,1.000
-11.040,-3.506,-6.074,-3.549,-0.586,-1.493,0.314,-4.263,-0.059,0.976,-0.271,-0.458,0.214,0.671,60.000,10886.000,1.000
-12.246,-6.321,-7.105,-3.399,-0.899,-2.260,-1.197,-4.644,-0.058,0.976,-0.268,-0.488,0.183,0.702,60.000,10887.000,1.000
-15.035,-10.992,-7.615,-2.991,-1.017,-2.997,-3.216,-5.013,-0.058,0.976,-0.266,-0.488,0.244,0.671,60.000,10888.000,1.000
-18.313,-16.367,-7.038,-1.826,-0.660,-3.005,-4.868,-4.910,-0.061,0.977,-0.263,-0.366,0.214,0.671,60.000,10889.000,1.000
-20.798,-21.333,-5.321,0.109,0.267,-2.258,-5.544,-4.002,-0.063,0.980,-0.266,-0.397,0.214,0.580,60.000,10890.000,1.000
-21.502,-25.224,-3.328,2.159,1.369,-1.581,-5.247,-2.452,-0.066,0.980,-0.266,-0.427,0.061,0.580,60.000,10891.000,1.000
-20.230,-27.726,-2.331,3.346,1.933,-1.945,-4.566,-0.875,-0.068,0.980,-0.268,-0.519,-0.031,0.580,60.000,10892.000,1.000
-17.602,-28.687,-2.961,3.105,1.488,-3.477,-4.008,0.135,-0.067,0.979,-0.268,-0.549,-0.275,0.519,60.000,10893.000,1.000
-14.334,-27.983,-4.704,1.771,0.247,-5.318,-3.314,0.470,-0.064,0.980,-0.267,-0.671,-0.366,0.427,60.000,10894.000,1.000
-11.507,-25.851,-6.469,0.067,-1.182,-6.534,-2.222,0.371,-0.063,0.980,-0.266,-0.641,-0.549,0.397,60.000,10895.000,1.000
-9.423,-22.423,-7.134,-1.118,-1.921,-6.500,-0.527,0.383,-0.063,0.980,-0.267,-0.702,-0.549,0.275,60.000,10896.000,1.000
-7.828,-17.951,-6.273,-1.370,-1.512,-5.242,1.595,0.795,-0.063,0.980,-0.266,-0.793,-0.610,0.183,60.000,10897.000,1.000
-6.549,-13.249,-4.352,-0.910,-0.354,-3.345,3.653,1.384,-0.063,0.981,-0.267,-0.916,-0.580,0.153,60.000,10898.000,1.000
-5.486,-9.530,-2.481,-0.255,0.524,-1.700,4.957,1.659,-0.060,0.981,-0.266,-1.007,-0.641,0.061,60.000,10899.000,1.000
-5.098,-7.891,-1.882,-0.053,0.004,-1.353,4.337,1.143,-0.059,0.981,-0.264,-1.068,-0.732,0.061,60.000,10900.000,1.000
-5.149,-8.120,-2.816,-0.385,-2.036,-2.628,1.723,0.032,-0.060,0.979,-0.268,-1.129,-0.793,-0.031,60.000,10901.000,1.000
-5.077,-9.164,-4.608,-1.118,-4.908,-5.003,-1.528,-1.086,-0.061,0.980,-0.271,-1.221,-0.854,0.061,60.000,10902.000,1.000
-4.466,-9.913,-6.231,-2.064,-7.615,-7.308,-3.458,-1.606,-0.062,0.981,-0.270,-1.282,-0.885,0.000,60.000,10903.000,1.000
-2.656,-9.340,-6.855,-2.688,-9.079,-8.089,-2.334,-1.016,-0.062,0.979,-0.269,-1.312,-0.916,0.000,60.000,10904.000,1.000
0.169,-7.201,-6.487,-2.690,-8.967,-6.743,1.738,0.496,-0.061,0.983,-0.264,-1.312,-0.977,0.000,60.000,10905.000,1.000
3.397,-3.982,-5.730,-2.128,-7.858,-3.985,6.859,2.178,-0.060,0.983,-0.268,-1.373,-0.916,0.000,60.000,10906.000,1.000
6.027,-0.801,-5.370,-1.617,-6.991,-1.615,10.195,3.101,-0.062,0.984,-0.270,-1.404,-0.946,0.000,60.000,10907.000,1.000
7.098,1.295,-5.731,-1.859,-7.292,-1.163,9.874,2.838,-0.062,0.982,-0.268,-1.434,-1.038,0.000,60.000,10908.000,1.000
6.785,2.328,-6.292,-2.753,-8.444,-2.542,6.586,1.865,-0.063,0.980,-0.267,-1.312,-0.854,0.183,60.000,10909.000,1.000
5.639,2.931,-6.268,-3.614,-9.378,-4.357,2.510,0.860,-0.063,0.980,-0.269,-1.343,-0.793,0.244,60.000,10910.000,1.000
4.508,3.640,-5.159,-3.621,-9.054,-4.895,0.116,0.226,-0.063,0.980,-0.268,-1.282,-0.977,0.244,60.000,10911.000,1.000
3.509,3.984,-3.351,-2.809,-7.488,-3.575,0.449,-0.300,-0.061,0.980,-0.268,-1.282,-0.977,0.214,60.000,10912.000,1.000
2.074,3.019,-1.737,-1.968,-5.608,-1.209,2.603,-1.209,-0.061,0.979,-0.267,-1.282,-0.977,0.275,60.000,10913.000,1.000
0.473,0.886,-0.761,-1.516,-4.058,1.016,4.971,-2.289,-0.059,0.980,-0.263,-1.221,-1.038,0.305,60.000,10914.000,1.000
-0.823,-1.434,-0.475,-1.493,-3.033,2.056,5.890,-2.923,-0.061,0.981,-0.264,-1.221,-0.916,0.275,60.000,10915.000,1.000
-1.465,-2.939,-0.768,-1.672,-2.452,1.496,4.782,-2.716,-0.060,0.979,-0.265,-1.251,-1.007,0.305,60.000,10916.000,1.000
-1.875,-3.454,-1.569,-1.896,-2.314,-0.474,2.128,-2.052,-0.060,0.978,-0.267,-1.068,-1.099,0.366,60.000,10917.000,1.000
-3.007,-3.641,-2.829,-2.178,-2.784,-3.365,-1.253,-1.918,-0.059,0.975,-0.265,-1.099,-1.099,0.366,60.000,10918.000,1.000
-5.051,-4.154,-4.300,-2.496,-3.806,-6.391,-4.243,-2.974,-0.057,0.975,-0.267,-0.977,-1.099,0.336,60.000,10919.000,1.000
-7.186,-4.713,-5.119,-2.494,-4.527,-8.060,-5.243,-4.672,-0.060,0.979,-0.268,-0.977,-0.977,0.305,60.000,10920.000,1.000
-7.263,-3.718,-3.830,-1.187,-3.239,-6.319,-2.207,-5.249,-0.061,0.979,-0.268,-1.007,-1.038,0.305,60.000,10921.000,1.000
-4.284,-0.444,-0.176,1.547,0.607,-0.949,4.518,-3.718,-0.060,0.980,-0.264,-1.160,-0.977,0.305,60.000,10922.000,1.000
0.332,3.742,4.100,4.414,5.493,5.458,11.257,-0.784,-0.061,0.980,-0.267,-1.068,-0.977,0.244,60.000,10923.000,1.000
4.689,6.955,6.690,6.073,9.382,9.734,14.396,2.295,-0.062,0.978,-0.267,-0.977,-1.007,0.214,60.000,10924.000,1.000
7.075,7.971,6.183,5.819,10.908,10.221,12.814,4.399,-0.063,0.977,-0.265,-0.946,-1.007,0.092,60.000,10925.000,1.000
6.792,6.654,2.805,3.831,9.817,7.433,8.146,4.908,-0.063,0.978,-0.268,-0.946,-0.946,-0.031,60.000,10926.000,1.000
3.924,3.384,-2.096,0.638,6.596,3.125,2.764,3.640,-0.061,0.976,-0.267,-0.916,-1.038,-0.031,60.000,10927.000,1.000
-0.756,-1.190,-6.826,-3.159,2.151,-0.825,-1.778,0.883,-0.061,0.976,-0.264,-0.854,-0.977,-0.031,60.000,10928.000,1.000
-5.570,-5.946,-9.941,-6.831,-2.388,-3.202,-4.698,-2.530,-0.061,0.978,-0.267,-0.793,-1.099,-0.122,60.000,10929.000,1.000
-9.073,-9.538,-10.604,-9.721,-5.987,-3.786,-5.993,-5.366,-0.061,0.979,-0.263,-0.854,-0.977,-0.244,60.000,10930.000,1.000
-9.784,-10.254,-8.419,-10.913,-7.496,-2.709,-5.669,-5.955,-0.060,0.978,-0.267,-0.885,-0.885,-0.275,60.000,10931.000,1.000
-7.361,-7.381,-4.127,-10.184,-6.525,-0.580,-4.098,-3.537,-0.061,0.977,-0.266,-0.854,-0.885,-0.214,60.000,10932.000,1.000
-3.471,-2.365,0.186,-8.703,-4.171,1.499,-2.173,0.584,-0.061,0.976,-0.266,-0.885,-0.854,-0.244,60.000,10933.000,1.000
-0.413,2.106,2.324,-8.110,-2.290,2.544,-0.733,3.860,-0.061,0.977,-0.265,-0.793,-0.854,-0.153,60.000,10934.000,1.000
-0.152,3.653,1.315,-9.423,-2.451,1.857,-0.962,4.165,-0.061,0.980,-0.267,-0.763,-0.702,-0.305,60.000,10935.000,1.000
-2.457,2.073,-1.662,-11.932,-4.670,-0.537,-3.483,1.481,-0.063,0.981,-0.266,-0.824,-0.702,-0.397,60.000,10936.000,1.000
-5.105,-0.649,-3.966,-13.667,-7.381,-3.816,-7.582,-2.149,-0.064,0.980,-0.266,-0.824,-0.732,-0.397,60.000,10937.000,1.000
-5.308,-1.776,-3.103,-12.669,-8.410,-6.428,-11.232,-3.951,-0.063,0.980,-0.264,-0.732,-0.793,-0.366,60.000,10938.000,1.000
-1.095,0.405,1.690,-8.238,-6.354,-6.762,-12.190,-2.141,-0.062,0.980,-0.266,-0.732,-0.763,-0.366,60.000,10939.000,1.000
6.649,5.202,8.740,-1.789,-1.688,-4.332,-9.898,2.659,-0.065,0.982,-0.266,-0.793,-0.671,-0.183,60.000,10940.000,1.000
15.251,10.540,15.270,4.407,3.951,0.315,-5.047,8.092,-0.065,0.982,-0.263,-0.702,-0.793,-0.183,60.000,10941.000,1.000
21.595,14.151,18.938,8.439,8.532,5.715,0.675,11.494,-0.065,0.982,-0.263,-0.824,-0.824,-0.092,60.000,10942.000,1.000
23.489,14.509,18.746,9.384,10.271,9.756,4.789,11.186,-0.066,0.984,-0.260,-0.763,-0.793,-0.214,60.000,10943.000,1.000
21.238,11.795,15.232,7.583,8.557,10.667,5.467,7.131,-0.065,0.983,-0.263,-0.977,-0.763,-0.183,60.000,10944.000,1.000
16.644,7.453,9.903,4.091,4.243,7.953,2.342,0.584,-0.065,0.982,-0.263,-0.977,-0.732,-0.122,60.000,10945.000,1.000
12.197,3.490,4.754,0.444,-0.525,3.068,-2.831,-6.182,-0.065,0.981,-0.265,-1.007,-0.793,-0.061,60.000,10946.000,1.000
9.537,1.341,1.331,-2.162,-3.624,-1.544,-7.393,-10.909,-0.066,0.981,-0.264,-1.007,-0.732,0.092,60.000,10947.000,1.000
8.827,1.302,0.148,-3.378,-4.132,-4.022,-9.505,-12.519,-0.066,0.980,-0.264,-1.068,-0.824,0.122,60.000,10948.000,1.000
9.595,2.749,0.789,-3.490,-2.506,-4.058,-8.874,-11.448,-0.067,0.981,-0.268,-1.129,-0.824,0.122,60.000,10949.000,1.000
10.722,4.456,2.300,-3.186,-0.124,-2.743,-6.813,-9.150,-0.064,0.982,-0.267,-1.190,-0.854,0.092,60.000,10950.000,1.000
11.644,5.723,4.037,-2.722,2.056,-0.968,-4.351,-6.665,-0.064,0.983,-0.264,-1.190,-0.916,0.153,60.000,10951.000,1.000
11.940,6.175,5.554,-2.272,3.634,0.963,-1.834,-4.444,-0.063,0.983,-0.263,-1.099,-0.854,0.214,60.000,10952.000,1.000
11.110,5.541,6.510,-2.083,4.463,2.967,0.560,-2.727,-0.065,0.981,-0.265,-1.160,-0.916,0.214,60.000,10953.000,1.000
9.815,4.322,7.009,-1.885,4.845,5.100,2.979,-1.442,-0.066,0.983,-0.264,-1.251,-0.793,0.275,60.000,10954.000,1.000
8.862,3.174,7.207,-1.376,5.076,7.062,5.129,-0.553,-0.066,0.982,-0.265,-1.343,-0.824,0.275,60.000,10955.000,1.000
8.686,2.341,7.086,-0.467,5.344,8.288,6.443,-0.046,-0.065,0.980,-0.262,-1.312,-0.763,0.183,60.000,10956.000,1.000
8.777,1.410,6.293,0.503,5.590,8.167,6.215,-0.035,-0.065,0.978,-0.263,-1.221,-0.793,0.244,60.000,10957.000,1.000
8.033,-0.138,4.382,0.903,5.373,6.375,3.937,-0.806,-0.066,0.977,-0.262,-1.129,-0.885,0.183,60.000,10958.000,1.000
6.114,-2.169,1.306,0.323,4.138,3.080,0.078,-2.465,-0.064,0.978,-0.266,-1.038,-0.977,0.183,60.000,10959.000,1.000
3.069,-4.271,-2.477,-1.267,1.552,-1.292,-4.350,-4.729,-0.063,0.977,-0.263,-0.977,-0.916,0.122,60.000,10960.000,1.000
-0.168,-5.691,-5.746,-2.914,-1.615,-5.684,-7.786,-6.426,-0.063,0.979,-0.263,-0.946,-0.793,0.214,60.000,10961.000,1.000
-2.216,-5.553,-6.959,-3.138,-3.650,-8.520,-8.854,-5.975,-0.062,0.980,-0.262,-0.824,-0.671,0.183,60.000,10962.000,1.000
-1.951,-3.152,-5.158,-0.924,-2.963,-8.398,-7.063,-2.491,-0.061,0.980,-0.267,-0.854,-0.610,0.122,60.000,10963.000,1.000
1.290,1.695,-0.804,3.546,0.806,-5.026,-2.677,3.455,-0.060,0.979,-0.266,-0.732,-0.519,0.244,60.000,10964.000,1.000
6.271,7.640,3.970,8.449,6.049,0.065,2.949,9.661,-0.062,0.979,-0.267,-0.763,-0.519,0.275,60.000,10965.000,1.000
10.766,12.365,6.743,11.580,10.255,4.428,8.014,13.610,-0.062,0.977,-0.268,-0.671,-0.488,0.183,60.000,10966.000,1.000
12.758,13.807,6.227,11.541,11.447,5.945,10.467,13.765,-0.060,0.977,-0.264,-0.671,-0.336,0.214,60.000,10967.000,1.000
11.468,11.398,2.937,8.397,9.215,3.914,8.744,10.309,-0.062,0.980,-0.267,-0.580,-0.336,0.214,60.000,10968.000,1.000
8.286,6.683,-1.167,3.766,4.984,-0.445,3.342,5.172,-0.062,0.979,-0.268,-0.549,-0.275,0.183,60.000,10969.000,1.000
5.315,2.227,-4.048,-0.323,0.998,-4.824,-3.430,0.879,-0.061,0.980,-0.271,-0.519,-0.092,0.153,60.000,10970.000,1.000
4.328,0.242,-4.650,-2.362,-0.875,-7.087,-8.559,-0.698,-0.060,0.978,-0.268,-0.549,0.092,0.244,60.000,10971.000,1.000
5.221,0.982,-3.569,-2.363,-0.416,-6.693,-10.444,0.457,-0.061,0.979,-0.272,-0.488,0.031,0.275,60.000,10972.000,1.000
6.298,3.020,-2.207,-1.436,1.307,-4.486,-9.346,2.940,-0.062,0.978,-0.268,-0.519,0.122,0.305,60.000,10973.000,1.000
6.643,5.168,-1.249,-0.311,3.470,-1.378,-5.908,5.545,-0.061,0.979,-0.266,-0.305,0.214,0.244,60.000,10974.000,1.000
6.010,6.786,-0.751,0.626,5.499,1.767,-1.239,7.481,-0.062,0.979,-0.265,-0.336,0.305,0.244,60.000,10975.000,1.000
4.696,7.592,-0.791,1.024,6.645,3.998,3.048,8.121,-0.062,0.980,-0.265,-0.275,0.275,0.183,60.000,10976.000,1.000
3.080,7.457,-1.565,0.563,6.131,4.384,5.130,7.064,-0.060,0.980,-0.266,-0.366,0.305,0.214,60.000,10977.000,1.000
1.742,6.780,-2.524,-0.286,4.230,3.025,4.536,4.857,-0.062,0.981,-0.267,-0.397,0.366,0.183,60.000,10978.000,1.000
1.814,6.546,-2.241,-0.085,2.590,1.536,3.249,3.161,-0.063,0.980,-0.267,-0.214,0.458,0.214,60.000,10979.000,1.000
3.209,6.950,0.048,1.904,2.460,1.459,3.341,3.127,-0.063,0.979,-0.267,-0.214,0.458,0.244,60.000,10980.000,1.000
4.940,7.401,3.723,5.100,3.691,3.056,5.278,4.430,-0.064,0.980,-0.266,-0.183,0.458,0.244,60.000,10981.000,1.000
5.876,7.172,7.234,8.014,5.062,5.254,7.914,5.646,-0.065,0.980,-0.266,-0.275,0.488,0.275,60.000,10982.000,1.000
5.147,5.808,9.001,9.166,5.191,6.407,9.478,5.419,-0.065,0.979,-0.266,-0.244,0.366,0.214,60.000,10983.000,1.000
2.912,3.396,8.121,7.960,3.394,5.237,8.756,3.361,-0.066,0.978,-0.267,-0.153,0.305,0.305,60.000,10984.000,1.000
-0.214,0.414,4.709,4.732,-0.094,1.494,5.325,-0.018,-0.066,0.979,-0.269,-0.244,0.244,0.275,60.000,10985.000,1.000
-2.933,-2.013,0.249,0.769,-3.944,-3.383,0.435,-3.429,-0.067,0.977,-0.272,-0.153,0.244,0.305,60.000,10986.000,1.000
-4.360,-2.917,-3.324,-2.628,-6.650,-7.177,-3.682,-5.639,-0.066,0.977,-0.267,-0.122,0.244,0.275,60.000,10987.000,1.000
-4.705,-2.178,-4.767,-4.729,-7.369,-8.285,-5.280,-6.134,-0.065,0.977,-0.265,-0.122,0.214,0.183,60.000,10988.000,1.000
-4.204,-0.230,-3.895,-5.100,-5.970,-6.307,-3.658,-5.041,-0.065,0.978,-0.266,-0.122,0.092,0.183,60.000,10989.000,1.000
-3.458,1.821,-1.638,-3.912,-3.260,-2.285,0.223,-3.248,-0.064,0.980,-0.265,-0.092,0.183,0.153,60.000,10990.000,1.000
-2.891,2.876,0.569,-1.830,-0.558,1.952,4.559,-1.896,-0.064,0.979,-0.267,-0.031,0.183,0.244,60.000,10991.000,1.000
-2.997,2.223,1.234,-0.047,0.712,4.413,7.291,-1.935,-0.064,0.983,-0.267,-0.031,0.092,0.305,60.000,10992.000,1.000
-4.424,-0.265,-0.365,0.397,-0.202,4.003,7.009,-3.568,-0.065,0.979,-0.267,-0.031,-0.031,0.336,60.000,10993.000,1.000
-6.661,-3.673,-3.345,-0.258,-2.522,1.521,4.302,-5.717,-0.064,0.978,-0.270,-0.092,-0.153,0.305,60.000,10994.000,1.000
-8.627,-6.770,-5.929,-0.961,-4.705,-1.124,1.010,-6.868,-0.064,0.979,-0.273,-0.122,-0.183,0.244,60.000,10995.000,1.000
-9.141,-8.590,-6.670,-0.652,-5.531,-2.207,-0.715,-6.083,-0.063,0.979,-0.269,0.000,-0.153,0.214,60.000,10996.000,1.000
-8.032,-8.886,-5.372,0.874,-4.878,-1.303,0.074,-3.677,-0.062,0.981,-0.269,-0.122,-0.214,0.183,60.000,10997.000,1.000
-6.404,-7.977,-2.890,2.925,-3.381,0.732,2.453,-0.808,-0.061,0.979,-0.267,-0.122,-0.153,0.244,60.000,10998.000,1.000
-5.225,-6.212,-0.378,4.631,-1.528,2.729,5.012,1.567,-0.061,0.978,-0.268,-0.122,-0.153,0.275,60.000,10999.000,1.000
-5.419,-4.381,0.909,5.074,0.174,3.624,6.491,2.816,-0.063,0.978,-0.272,-0.122,-0.153,0.244,60.000,11000.000,1.000
-7.195,-3.399,0.282,3.979,1.241,2.892,6.386,2.837,-0.064,0.979,-0.272,-0.183,-0.122,0.305,60.000,11001.000,1.000
-10.155,-3.838,-1.930,1.921,1.429,0.701,4.842,2.069,-0.063,0.978,-0.270,-0.153,-0.122,0.275,60.000,11002.000,1.000
-13.672,-5.505,-4.469,-0.037,0.930,-1.972,2.510,1.315,-0.063,0.976,-0.270,-0.122,-0.153,0.183,60.000,11003.000,1.000
-16.432,-7.254,-5.752,-0.755,0.456,-3.588,0.816,1.456,-0.063,0.978,-0.269,-0.122,-0.183,0.183,60.000,11004.000,1.000
-17.483,-7.976,-4.918,0.253,0.683,-3.114,0.912,2.795,-0.063,0.979,-0.269,-0.092,-0.122,0.214,60.000,11005.000,1.000
-16.391,-7.171,-2.242,2.801,1.916,-0.574,2.963,5.035,-0.062,0.978,-0.267,-0.061,-0.031,0.092,60.000,11006.000,1.000
-13.983,-5.530,0.664,5.707,3.403,2.651,5.461,7.133,-0.063,0.978,-0.269,-0.122,-0.031,0.122,60.000,11007.000,1.000
-12.292,-4.587,1.665,7.192,3.555,4.511,6.035,7.693,-0.063,0.977,-0.268,-0.122,-0.031,0.061,60.000,11008.000,1.000
-12.423,-5.060,-0.162,6.373,1.467,3.797,3.670,6.198,-0.061,0.979,-0.270,-0.305,-0.092,0.061,60.000,11009.000,1.000
-14.028,-6.266,-3.826,3.763,-2.323,0.866,-0.768,3.372,-0.062,0.978,-0.271,-0.244,-0.092,0.122,60.000,11010.000,1.000
-15.525,-6.823,-7.222,0.771,-6.286,-2.540,-4.885,0.497,-0.062,0.978,-0.267,-0.153,-0.031,0.092,60.000,11011.000,1.000
-16.195,-6.616,-9.221,-1.937,-9.620,-5.135,-7.063,-2.086,-0.061,0.979,-0.270,-0.244,0.061,0.061,60.000,11012.000,1.000
-16.804,-6.858,-10.278,-4.648,-12.626,-7.068,-7.915,-4.911,-0.062,0.979,-0.272,-0.397,0.183,0.031,60.000,11013.000,1.000
-17.268,-7.776,-10.877,-6.981,-15.144,-8.579,-8.509,-7.663,-0.062,0.979,-0.269,-0.427,0.275,-0.031,60.000,11014.000,1.000
-16.703,-8.215,-10.737,-7.844,-16.272,-9.205,-9.269,-9.041,-0.062,0.978,-0.273,-0.488,0.244,-0.092,60.000,11015.000,1.000
-14.145,-6.812,-9.238,-6.362,-15.134,-8.216,-9.723,-7.883,-0.063,0.976,-0.272,-0.488,0.305,-0.122,60.000,11016.000,1.000
-9.344,-3.093,-6.097,-2.570,-11.439,-5.311,-8.854,-4.058,-0.066,0.976,-0.270,-0.519,0.366,-0.153,60.000,11017.000,1.000
-2.724,2.630,-1.263,2.939,-5.324,-0.461,-5.446,1.760,-0.064,0.978,-0.270,-0.488,0.275,-0.183,60.000,11018.000,1.000
4.921,9.339,4.824,9.184,2.334,5.827,0.727,8.248,-0.062,0.979,-0.269,-0.397,0.336,-0.183,60.000,11019.000,1.000
11.298,14.679,10.430,14.153,9.109,11.531,6.921,13.119,-0.062,0.977,-0.272,-0.549,0.305,-0.092,60.000,11020.000,1.000
14.374,16.524,13.531,16.004,12.461,14.291,9.613,14.495,-0.066,0.978,-0.269,-0.610,0.275,-0.061,60.000,11021.000,1.000
13.907,14.675,13.272,14.418,11.654,13.327,7.866,12.301,-0.066,0.980,-0.271,-0.641,0.305,0.031,60.000,11022.000,1.000
10.929,10.650,10.293,10.559,7.959,9.863,3.702,8.007,-0.063,0.978,-0.269,-0.671,0.305,0.092,60.000,11023.000,1.000
7.055,6.367,5.954,6.038,3.369,5.940,0.145,3.347,-0.062,0.978,-0.268,-0.732,0.244,0.000,60.000,11024.000,1.000
3.184,2.742,1.339,1.710,-0.900,2.868,-1.229,-0.806,-0.064,0.979,-0.269,-0.793,0.305,0.031,60.000,11025.000,1.000
0.373,0.266,-2.508,-1.791,-4.081,1.318,-0.107,-3.874,-0.064,0.982,-0.267,-0.824,0.275,-0.061,60.000,11026.000,1.000
-0.280,-0.718,-4.699,-3.848,-5.623,1.324,2.754,-5.305,-0.065,0.982,-0.267,-0.885,0.366,-0.031,60.000,11027.000,1.000
1.060,-0.623,-5.138,-4.398,-5.668,1.977,5.387,-5.205,-0.063,0.984,-0.271,-1.007,0.366,0.092,60.000,11028.000,1.000
3.341,-0.420,-4.509,-3.926,-4.955,1.967,5.892,-4.414,-0.063,0.982,-0.269,-1.099,0.336,0.092,60.000,11029.000,1.000
5.089,-0.991,-3.688,-3.225,-4.311,0.465,3.460,-3.903,-0.065,0.979,-0.268,-1.099,0.397,0.183,60.000,11030.000,1.000
5.984,-2.069,-2.849,-2.546,-3.718,-1.995,-0.636,-3.741,-0.065,0.979,-0.268,-1.068,0.397,0.092,60.000,11031.000,1.000
6.550,-2.720,-1.818,-1.820,-2.651,-4.146,-4.236,-3.470,-0.066,0.979,-0.270,-1.099,0.244,0.183,60.000,11032.000,1.000
6.886,-2.449,-0.793,-1.301,-1.044,-5.020,-6.107,-3.097,-0.064,0.980,-0.271,-1.099,0.244,0.153,60.000,11033.000,1.000
7.063,-1.281,-0.077,-1.251,0.738,-3.981,-5.595,-2.872,-0.066,0.980,-0.269,-1.190,0.275,0.214,60.000,11034.000,1.000
7.058,0.412,0.473,-1.519,2.459,-0.819,-2.312,-2.552,-0.067,0.981,-0.266,-1.160,0.214,0.244,60.000,11035.000,1.000
7.412,2.522,1.584,-1.278,4.537,4.127,3.863,-1.089,-0.065,0.983,-0.269,-1.312,0.183,0.183,60.000,11036.000,1.000
8.303,4.763,3.486,-0.219,7.148,9.455,11.511,2.017,-0.066,0.983,-0.267,-1.404,0.244,0.183,60.000,11037.000,1.000
8.618,6.143,5.251,0.666,9.319,12.833,17.184,5.570,-0.065,0.980,-0.267,-1.526,0.183,0.275,60.000,11038.000,1.000
7.079,5.405,5.361,-0.108,9.354,11.940,17.296,7.275,-0.064,0.979,-0.271,-1.465,0.122,0.397,60.000,11039.000,1.000
2.475,1.240,2.481,-3.788,5.602,5.396,9.880,4.944,-0.063,0.974,-0.273,-1.495,0.183,0.427,60.000,11040.000,1.000
-4.884,-6.303,-3.184,-10.018,-1.905,-5.646,-3.502,-1.663,-0.060,0.973,-0.269,-1.526,0.244,0.519,60.000,11041.000,1.000
-12.741,-14.947,-9.332,-16.320,-10.590,-17.151,-18.000,-10.045,-0.061,0.976,-0.268,-1.373,0.183,0.519,60.000,11042.000,1.000
-18.256,-21.277,-12.830,-19.453,-16.611,-24.296,-28.094,-16.368,-0.062,0.974,-0.268,-1.312,0.214,0.580,60.000,11043.000,1.000
-19.211,-22.663,-11.928,-17.680,-17.376,-24.532,-30.433,-17.995,-0.060,0.972,-0.266,-1.221,0.214,0.519,60.000,11044.000,1.000
-15.628,-18.893,-7.460,-12.100,-13.226,-19.088,-25.785,-15.077,-0.060,0.972,-0.266,-1.190,0.275,0.549,60.000,11045.000,1.000
-8.943,-11.526,-1.523,-5.110,-6.368,-11.148,-17.421,-9.521,-0.063,0.973,-0.270,-1.038,0.305,0.580,60.000,11046.000,1.000
-1.281,-2.936,3.987,1.163,0.601,-3.699,-8.903,-3.594,-0.062,0.974,-0.271,-1.038,0.244,0.610,60.000,11047.000,1.000
4.954,4.424,7.947,5.490,5.686,1.475,-2.804,0.922,-0.063,0.975,-0.272,-0.946,0.275,0.610,60.000,11048.000,1.000
8.654,9.136,10.111,7.925,8.365,4.069,0.360,3.457,-0.065,0.977,-0.274,-0.946,0.214,0.702,60.000,11049.000,1.000
9.746,10.834,10.475,8.960,9.051,4.365,1.177,4.194,-0.063,0.979,-0.272,-0.885,0.153,0.641,60.000,11050.000,1.000
9.007,9.910,8.941,8.824,8.230,2.563,0.312,3.432,-0.063,0.982,-0.271,-0.885,0.031,0.702,60.000,11051.000,1.000
7.108,6.801,5.389,7.233,5.957,-1.244,-2.104,1.259,-0.063,0.985,-0.270,-1.007,0.031,0.671,60.000,11052.000,1.000
4.202,1.886,0.352,4.024,2.341,-6.216,-5.765,-2.002,-0.061,0.983,-0.271,-1.099,-0.031,0.610,60.000,11053.000,1.000
1.381,-3.653,-4.446,0.182,-1.483,-10.060,-8.668,-5.141,-0.061,0.986,-0.269,-1.160,0.000,0.549,60.000,11054.000,1.000
0.192,-8.151,-6.968,-2.606,-3.789,-10.368,-8.457,-6.740,-0.062,0.985,-0.273,-1.160,0.061,0.366,60.000,11055.000,1.000
1.862,-10.187,-6.131,-2.939,-3.442,-6.555,-4.563,-6.111,-0.060,0.981,-0.271,-1.251,0.031,0.458,60.000,11056.000,1.000
5.798,-9.689,-2.723,-1.042,-1.071,-0.839,0.764,-4.028,-0.057,0.979,-0.271,-1.373,0.092,0.488,60.000,11057.000,1.000
9.174,-8.173,1.092,1.169,1.236,3.225,4.016,-2.315,-0.056,0.976,-0.271,-1.343,0.122,0.549,60.000,11058.000,1.000
9.568,-7.140,3.410,1.853,1.762,3.563,3.425,-2.288,-0.059,0.973,-0.271,-1.343,0.092,0.458,60.000,11059.000,1.000
6.703,-6.681,3.704,0.559,0.398,0.853,-0.267,-3.764,-0.058,0.973,-0.274,-1.221,0.153,0.458,60.000,11060.000,1.000
3.006,-5.205,3.210,-1.322,-1.125,-1.905,-3.992,-4.978,-0.056,0.974,-0.272,-1.190,0.153,0.549,60.000,11061.000,1.000
0.982,-1.542,3.616,-2.039,-0.878,-1.764,-4.452,-4.153,-0.056,0.979,-0.270,-1.160,0.305,0.427,60.000,11062.000,1.000
0.799,3.453,5.529,-0.988,1.560,1.917,-0.883,-0.958,-0.057,0.982,-0.270,-1.221,0.366,0.427,60.000,11063.000,1.000
1.606,7.971,8.300,1.491,5.241,7.329,4.641,3.715,-0.054,0.985,-0.269,-1.221,0.397,0.610,60.000,11064.000,1.000
2.476,10.435,10.542,4.412,8.617,11.578,8.733,8.232,-0.054,0.985,-0.272,-1.434,0.488,0.580,60.000,11065.000,1.000
3.371,10.428,11.234,6.790,10.600,12.933,9.662,11.075,-0.055,0.985,-0.273,-1.587,0.427,0.549,60.000,11066.000,1.000
4.496,8.263,10.138,7.879,10.722,11.497,7.992,11.406,-0.055,0.988,-0.274,-1.801,0.549,0.580,60.000,11067.000,1.000
5.379,4.230,7.624,7.324,8.927,8.351,5.056,9.284,-0.055,0.988,-0.272,-1.862,0.671,0.549,60.000,11068.000,1.000
5.989,-0.943,4.632,5.678,5.939,4.915,2.349,5.801,-0.059,0.987,-0.272,-1.923,0.732,0.488,60.000,11069.000,1.000
6.458,-6.159,2.150,3.893,2.915,2.281,0.662,2.363,-0.062,0.986,-0.270,-1.923,0.793,0.458,60.000,11070.000,1.000
6.864,-10.339,0.563,2.540,0.707,0.805,-0.057,-0.144,-0.065,0.986,-0.266,-2.075,0.671,0.397,60.000,11071.000,1.000
6.550,-13.168,-0.855,0.979,-0.975,-0.263,-0.743,-2.084,-0.068,0.985,-0.264,-2.167,0.519,0.214,60.000,11072.000,1.000
4.493,-14.745,-2.992,-1.842,-2.916,-1.860,-2.328,-4.312,-0.071,0.985,-0.269,-2.319,0.336,0.031,60.000,11073.000,1.000
1.502,-14.190,-5.210,-5.345,-4.639,-3.362,-3.858,-6.371,-0.075,0.983,-0.268,-2.319,0.122,-0.122,60.000,11074.000,1.000
-0.512,-10.303,-5.722,-7.626,-4.657,-2.953,-3.271,-6.762,-0.074,0.982,-0.267,-2.319,-0.092,-0.183,60.000,11075.000,1.000
-0.105,-3.028,-3.381,-7.182,-2.099,0.503,0.681,-4.629,-0.076,0.983,-0.267,-2.441,-0.458,-0.244,60.000,11076.000,1.000
2.264,5.777,0.957,-4.341,2.097,5.941,6.773,-0.915,-0.076,0.983,-0.262,-2.472,-0.671,-0.458,60.000,11077.000,1.000
4.430,13.372,5.166,-0.865,5.863,10.769,11.778,2.430,-0.075,0.980,-0.263,-2.472,-1.007,-0.580,60.000,11078.000,1.000
4.951,18.177,7.662,1.737,7.784,12.941,13.240,4.225,-0.075,0.979,-0.264,-2.502,-1.221,-0.549,60.000,11079.000,1.000
3.595,20.054,7.953,2.781,7.560,11.818,10.616,4.365,-0.073,0.976,-0.265,-2.502,-1.434,-0.702,60.000,11080.000,1.000
1.385,19.753,6.425,2.480,5.766,8.200,5.347,3.369,-0.072,0.978,-0.267,-2.472,-1.556,-0.610,60.000,11081.000,1.000
-0.408,18.011,3.848,1.451,3.305,3.724,-0.200,1.792,-0.067,0.977,-0.267,-2.350,-1.648,-0.610,60.000,11082.000,1.000
-1.109,15.483,1.301,0.441,1.304,0.453,-3.680,0.272,-0.068,0.977,-0.264,-2.319,-1.801,-0.427,60.000,11083.000,1.000
-0.121,13.218,-0.021,0.230,0.985,0.252,-2.964,-0.360,-0.065,0.979,-0.264,-2.197,-1.892,-0.275,60.000,11084.000,1.000
1.882,11.532,-0.047,0.444,2.205,2.798,1.718,-0.196,-0.062,0.978,-0.263,-2.258,-1.923,-0.214,60.000,11085.000,1.000
3.390,9.704,0.013,-0.294,3.190,5.277,7.087,-0.364,-0.063,0.978,-0.265,-2.197,-1.892,-0.092,60.000,11086.000,1.000
3.326,6.986,-1.108,-2.931,2.096,4.735,9.065,-1.810,-0.064,0.976,-0.263,-2.228,-1.984,0.031,60.000,11087.000,1.000
1.687,3.656,-3.440,-6.906,-1.268,0.689,5.914,-4.175,-0.063,0.975,-0.266,-2.136,-2.014,0.214,60.000,11088.000,1.000
-0.139,1.075,-5.798,-10.492,-5.259,-4.648,-0.386,-6.015,-0.062,0.974,-0.266,-2.014,-1.984,0.244,60.000,11089.000,1.000
-0.992,0.316,-6.988,-12.392,-7.897,-8.449,-6.183,-6.280,-0.061,0.974,-0.266,-1.923,-1.953,0.397,60.000,11090.000,1.000
0.111,1.957,-6.153,-11.880,-7.553,-8.648,-8.119,-4.578,-0.061,0.974,-0.264,-1.740,-1.831,0.519,60.000,11091.000,1.000
3.767,5.944,-3.054,-8.755,-3.560,-4.801,-4.919,-0.941,-0.063,0.976,-0.262,-1.648,-1.648,0.458,60.000,11092.000,1.000
8.962,10.864,1.444,-3.823,3.028,1.469,1.604,3.996,-0.060,0.978,-0.263,-1.587,-1.648,0.641,60.000,11093.000,1.000
13.543,14.183,5.556,1.231,9.759,7.153,7.880,8.989,-0.059,0.980,-0.267,-1.556,-1.495,0.702,60.000,11094.000,1.000
14.937,13.364,7.296,4.402,13.925,9.317,10.395,12.406,-0.059,0.978,-0.264,-1.434,-1.373,0.732,60.000,11095.000,1.000
12.534,8.157,5.999,4.979,14.553,7.283,8.362,13.462,-0.058,0.978,-0.266,-1.404,-1.373,0.793,60.000,11096.000,1.000
8.237,0.996,2.789,3.908,12.841,2.966,4.076,12.729,-0.059,0.979,-0.267,-1.282,-1.251,0.824,60.000,11097.000,1.000
4.445,-5.069,-0.448,2.573,10.658,-0.884,0.644,11.334,-0.059,0.979,-0.269,-1.312,-1.068,0.763,60.000,11098.000,1.000
2.895,-8.078,-2.261,1.917,9.229,-2.328,0.321,10.180,-0.058,0.978,-0.268,-1.190,-0.946,0.793,60.000,11099.000,1.000
3.318,-8.093,-2.470,1.817,8.464,-1.232,3.112,9.394,-0.057,0.979,-0.267,-1.099,-0.763,0.732,60.000,11100.000,1.000
4.360,-6.311,-1.654,1.748,7.740,1.274,7.252,8.868,-0.057,0.978,-0.265,-1.038,-0.610,0.641,60.000,11101.000,1.000
4.671,-4.148,-0.616,1.291,6.595,3.590,10.292,8.526,-0.054,0.978,-0.269,-0.977,-0.458,0.610,60.000,11102.000,1.000
3.136,-2.975,-0.342,0.070,4.654,4.148,10.008,7.926,-0.055,0.979,-0.266,-0.916,-0.244,0.549,60.000,11103.000,1.000
0.175,-3.177,-1.416,-1.750,1.927,2.297,5.975,6.626,-0.055,0.976,-0.268,-0.763,-0.092,0.458,60.000,11104.000,1.000
-2.870,-4.075,-3.543,-3.475,-1.110,-1.326,-0.455,4.656,-0.057,0.975,-0.268,-0.702,0.031,0.366,60.000,11105.000,1.000
-4.687,-4.584,-5.554,-4.155,-3.638,-5.094,-6.892,2.731,-0.059,0.977,-0.266,-0.671,0.092,0.244,60.000,11106.000,1.000
-4.932,-4.104,-6.179,-3.270,-5.044,-7.378,-11.023,1.776,-0.059,0.979,-0.270,-0.610,0.214,0.061,60.000,11107.000,1.000
-4.209,-2.601,-4.693,-0.982,-5.193,-7.160,-11.387,2.301,-0.058,0.979,-0.269,-0.549,0.397,-0.061,60.000,11108.000,1.000
-2.763,-0.187,-1.368,2.145,-4.341,-4.331,-7.806,3.973,-0.060,0.980,-0.267,-0.549,0.519,-0.122,60.000,11109.000,1.000
-1.316,2.180,2.050,4.741,-3.554,-0.354,-2.671,5.210,-0.061,0.981,-0.266,-0.519,0.549,-0.275,60.000,11110.000,1.000
-0.755,3.154,3.532,5.356,-3.963,2.740,0.693,4.441,-0.060,0.981,-0.264,-0.458,0.610,-0.275,60.000,11111.000,1.000
-1.214,2.320,2.539,3.664,-5.588,3.946,0.870,1.741,-0.061,0.982,-0.265,-0.549,0.641,-0.397,60.000,11112.000,1.000
-2.189,0.522,0.313,0.656,-7.398,3.453,-1.353,-1.321,-0.062,0.980,-0.265,-0.610,0.641,-0.549,60.000,11113.000,1.000
-3.020,-1.075,-1.607,-2.351,-8.541,1.685,-4.455,-3.453,-0.063,0.979,-0.267,-0.641,0.610,-0.549,60.000,11114.000,1.000
-4.286,-2.398,-2.847,-4.946,-9.322,-1.223,-7.636,-4.930,-0.065,0.979,-0.265,-0.641,0.549,-0.580,60.000,11115.000,1.000
-6.519,-3.638,-3.518,-6.877,-10.071,-4.419,-9.787,-6.330,-0.067,0.979,-0.266,-0.641,0.580,-0.519,60.000,11116.000,1.000
-9.283,-4.542,-3.776,-7.765,-10.618,-6.656,-9.635,-7.726,-0.065,0.980,-0.267,-0.641,0.549,-0.519,60.000,11117.000,1.000
-12.129,-4.978,-4.156,-7.818,-11.075,-7.633,-7.440,-9.239,-0.068,0.981,-0.267,-0.610,0.549,-0.610,60.000,11118.000,1.000
-14.326,-4.803,-4.861,-7.278,-11.403,-7.478,-4.219,-10.658,-0.068,0.983,-0.268,-0.610,0.488,-0.641,60.000,11119.000,1.000
-15.534,-3.966,-5.245,-6.005,-10.954,-5.906,-0.620,-11.193,-0.068,0.986,-0.269,-0.519,0.397,-0.580,60.000,11120.000,1.000
-15.773,-2.526,-4.451,-3.740,-8.945,-2.576,3.380,-10.180,-0.068,0.984,-0.267,-0.610,0.366,-0.519,60.000,11121.000,1.000
-15.539,-1.061,-2.777,-1.074,-5.742,1.510,7.238,-8.289,-0.068,0.985,-0.264,-0.641,0.366,-0.397,60.000,11122.000,1.000
-15.998,-0.848,-1.733,0.530,-3.024,3.937,8.998,-7.332,-0.069,0.985,-0.261,-0.763,0.366,-0.244,60.000,11123.000,1.000
-17.535,-2.707,-2.334,0.355,-2.108,2.934,7.170,-8.301,-0.068,0.983,-0.262,-0.763,0.275,-0.061,60.000,11124.000,1.000
-19.727,-6.299,-4.122,-0.971,-2.946,-1.197,2.183,-10.431,-0.069,0.979,-0.268,-0.763,0.214,0.061,60.000,11125.000,1.000
-21.336,-10.001,-5.626,-2.040,-4.363,-6.309,-3.613,-11.935,-0.071,0.977,-0.269,-0.763,0.092,0.153,60.000,11126.000,1.000
-21.333,-12.082,-5.936,-2.162,-5.375,-10.247,-7.998,-11.839,-0.071,0.977,-0.269,-0.549,-0.031,0.305,60.000,11127.000,1.000
-20.028,-11.956,-5.418,-1.962,-5.879,-12.071,-10.448,-10.747,-0.072,0.977,-0.267,-0.519,-0.183,0.397,60.000,11128.000,1.000
-17.809,-9.747,-4.667,-2.127,-5.842,-11.547,-10.919,-9.513,-0.073,0.975,-0.267,-0.458,-0.336,0.366,60.000,11129.000,1.000
-14.916,-5.869,-3.664,-2.691,-5.030,-8.896,-9.319,-8.235,-0.070,0.973,-0.271,-0.397,-0.366,0.336,60.000,11130.000,1.000
-11.197,-0.673,-1.756,-2.895,-3.051,-4.634,-5.471,-6.247,-0.072,0.975,-0.270,-0.244,-0.397,0.519,60.000,11131.000,1.000
-6.738,5.158,1.349,-1.945,0.229,0.378,0.130,-3.123,-0.069,0.974,-0.268,-0.183,-0.427,0.580,60.000,11132.000,1.000
-2.683,10.214,4.950,0.203,4.276,4.899,5.601,0.597,-0.065,0.977,-0.267,-0.214,-0.488,0.671,60.000,11133.000,1.000
-0.154,13.079,7.812,2.997,8.003,7.682,8.858,3.876,-0.062,0.977,-0.267,-0.214,-0.549,0.702,60.000,11134.000,1.000
-0.298,12.576,8.610,5.245,9.841,7.679,8.710,5.644,-0.059,0.975,-0.271,-0.092,-0.488,0.916,60.000,11135.000,1.000
-3.430,8.460,6.740,5.923,8.745,4.764,5.809,5.500,-0.058,0.976,-0.269,-0.183,-0.458,0.977,60.000,11136.000,1.000
-8.548,1.753,2.795,4.890,4.968,-0.075,1.835,3.863,-0.062,0.978,-0.270,-0.183,-0.336,1.038,60.000,11137.000,1.000
-13.925,-5.596,-1.556,3.019,-0.001,-5.065,-1.893,1.752,-0.067,0.980,-0.264,-0.244,-0.214,0.946,60.000,11138.000,1.000
-17.158,-11.101,-4.169,2.048,-3.864,-8.034,-4.095,0.708,-0.070,0.981,-0.267,-0.275,-0.122,0.824,60.000,11139.000,1.000
-17.074,-13.341,-4.092,2.977,-5.136,-8.049,-4.404,1.633,-0.069,0.980,-0.266,-0.305,-0.275,0.793,60.000,11140.000,1.000
-14.073,-12.529,-2.153,5.342,-3.942,-6.150,-3.688,4.208,-0.068,0.979,-0.268,-0.336,-0.397,0.793,60.000,11141.000,1.000
-9.180,-9.714,0.252,8.001,-1.278,-4.005,-2.787,7.595,-0.068,0.980,-0.272,-0.397,-0.366,0.702,60.000,11142.000,1.000
-3.688,-5.992,2.482,10.131,1.994,-2.200,-1.357,11.233,-0.068,0.983,-0.270,-0.427,-0.458,0.610,60.000,11143.000,1.000
1.489,-2.084,4.580,11.449,5.351,-0.247,1.725,14.781,-0.065,0.981,-0.270,-0.610,-0.488,0.488,60.000,11144.000,1.000
5.179,1.181,6.165,11.424,7.851,1.820,5.912,17.317,-0.065,0.980,-0.266,-0.641,-0.427,0.397,60.000,11145.000,1.000
6.610,3.132,6.517,9.640,8.419,3.212,8.979,17.753,-0.065,0.981,-0.268,-0.732,-0.488,0.214,60.000,11146.000,1.000
5.863,3.508,5.189,6.302,6.551,3.069,8.820,15.664,-0.065,0.981,-0.269,-0.885,-0.427,0.183,60.000,11147.000,1.000
3.489,2.529,2.452,2.284,2.755,1.180,4.916,11.685,-0.067,0.981,-0.272,-0.885,-0.397,0.061,60.000,11148.000,1.000
0.941,1.159,-0.603,-0.937,-1.357,-1.613,-0.911,7.394,-0.067,0.979,-0.271,-0.885,-0.427,0.000,60.000,11149.000,1.000
-0.898,0.041,-2.908,-2.390,-4.270,-4.115,-6.317,4.118,-0.067,0.979,-0.271,-0.885,-0.458,-0.031,60.000,11150.000,1.000
-1.880,-0.831,-3.856,-1.967,-5.253,-5.198,-9.645,2.399,-0.066,0.979,-0.269,-0.854,-0.397,-0.031,60.000,11151.000,1.000
-2.142,-1.773,-3.603,-0.415,-4.643,-4.432,-10.219,1.852,-0.063,0.980,-0.268,-0.885,-0.397,-0.061,60.000,11152.000,1.000
-2.389,-3.260,-3.239,0.724,-3.945,-2.772,-8.766,1.109,-0.062,0.981,-0.268,-0.916,-0.458,-0.061,60.000,11153.000,1.000
-2.819,-5.169,-3.810,0.331,-4.569,-1.701,-6.576,-0.977,-0.064,0.981,-0.271,-0.977,-0.427,0.000,60.000,11154.000,1.000
-2.841,-6.403,-5.000,-1.179,-6.268,-1.555,-4.571,-3.906,-0.064,0.980,-0.270,-1.068,-0.336,-0.031,60.000,11155.000,1.000
-0.785,-4.938,-4.821,-1.593,-6.785,-0.635,-2.060,-5.315,-0.063,0.978,-0.271,-1.007,-0.336,0.000,60.000,11156.000,1.000
4.588,0.457,-1.643,1.023,-4.137,2.850,2.447,-3.261,-0.063,0.979,-0.271,-1.038,-0.336,0.031,60.000,11157.000,1.000
11.972,8.413,3.743,6.024,1.077,8.322,9.004,1.503,-0.064,0.978,-0.265,-1.007,-0.275,0.122,60.000,11158.000,1.000
18.591,15.685,8.606,10.720,6.230,13.154,16.024,6.018,-0.063,0.977,-0.269,-0.946,-0.336,0.122,60.000,11159.000,1.000
21.507,18.804,10.041,12.161,8.398,14.484,20.735,7.010,-0.063,0.977,-0.266,-0.885,-0.305,0.153,60.000,11160.000,1.000
19.695,16.303,6.902,9.218,6.289,11.259,21.054,3.118,-0.063,0.980,-0.268,-0.824,-0.458,0.275,60.000,11161.000,1.000
14.580,9.489,0.346,3.059,0.936,4.760,17.116,-4.324,-0.065,0.980,-0.270,-0.824,-0.397,0.366,60.000,11162.000,1.000
8.375,1.185,-6.982,-3.905,-5.128,-2.328,10.871,-12.268,-0.065,0.980,-0.271,-0.946,-0.305,0.427,60.000,11163.000,1.000
3.359,-5.711,-12.248,-9.125,-9.247,-7.302,4.978,-17.602,-0.066,0.979,-0.270,-0.946,-0.336,0.610,60.000,11164.000,1.000
0.345,-9.967,-14.222,-11.519,-10.499,-9.298,0.658,-19.205,-0.067,0.981,-0.270,-1.007,-0.305,0.488,60.000,11165.000,1.000
-1.071,-11.912,-13.461,-11.514,-9.692,-9.290,-2.289,-18.056,-0.068,0.982,-0.267,-0.946,-0.336,0.519,60.000,11166.000,1.000
-1.385,-12.107,-11.080,-9.971,-7.888,-8.481,-4.176,-15.691,-0.067,0.981,-0.267,-0.977,-0.366,0.610,60.000,11167.000,1.000
-0.873,-10.624,-7.714,-7.453,-5.424,-7.047,-4.903,-13.017,-0.067,0.978,-0.267,-0.977,-0.427,0.641,60.000,11168.000,1.000
0.983,-7.134,-3.541,-4.112,-2.042,-4.348,-3.763,-10.162,-0.066,0.980,-0.269,-1.068,-0.458,0.671,60.000,11169.000,1.000
3.883,-2.420,0.540,-0.790,1.635,-0.781,-0.986,-7.582,-0.066,0.980,-0.269,-1.129,-0.427,0.580,60.000,11170.000,1.000
6.544,1.635,3.081,1.205,4.120,2.048,1.989,-5.989,-0.068,0.979,-0.264,-1.129,-0.397,0.580,60.000,11171.000,1.000
8.079,3.753,3.497,1.381,4.640,3.068,3.682,-5.261,-0.067,0.979,-0.269,-1.038,-0.397,0.549,60.000,11172.000,1.000
8.513,4.201,2.604,0.450,3.871,2.700,3.258,-4.364,-0.067,0.979,-0.271,-0.977,-0.458,0.427,60.000,11173.000,1.000
8.955,4.362,1.761,-0.370,3.188,2.202,1.213,-2.381,-0.065,0.976,-0.269,-0.977,-0.427,0.519,60.000,11174.000,1.000
9.920,5.185,1.702,-0.538,3.311,2.400,-1.037,0.458,-0.065,0.977,-0.269,-0.824,-0.488,0.427,60.000,11175.000,1.000
11.231,6.878,2.703,0.144,4.423,3.665,-1.674,3.415,-0.067,0.977,-0.268,-0.885,-0.488,0.397,60.000,11176.000,1.000
12.176,8.688,4.489,1.589,6.156,5.621,-0.203,5.753,-0.067,0.977,-0.267,-1.038,-0.641,0.397,60.000,11177.000,1.000
10.990,8.608,5.751,2.689,7.019,6.678,1.027,6.428,-0.064,0.976,-0.271,-0.916,-0.641,0.397,60.000,11178.000,1.000
6.928,5.375,5.158,2.242,5.579,5.474,-0.659,4.920,-0.063,0.977,-0.271,-0.824,-0.610,0.397,60.000,11179.000,1.000
1.477,0.245,2.799,0.291,2.107,2.546,-5.321,2.137,-0.066,0.975,-0.270,-0.763,-0.671,0.397,60.000,11180.000,1.000
-2.180,-3.566,0.394,-1.522,-1.256,0.211,-10.045,0.107,-0.065,0.974,-0.264,-0.793,-0.732,0.397,60.000,11181.000,1.000
-1.922,-3.866,-0.531,-1.619,-2.603,0.170,-11.937,0.103,-0.067,0.977,-0.267,-0.732,-0.702,0.336,60.000,11182.000,1.000
1.129,-1.505,-0.097,-0.087,-2.044,1.733,-10.971,1.440,-0.067,0.976,-0.270,-0.732,-0.763,0.275,60.000,11183.000,1.000
4.832,1.311,0.822,2.136,-0.743,3.110,-8.891,2.681,-0.065,0.977,-0.269,-0.854,-0.793,0.214,60.000,11184.000,1.000
7.788,3.044,1.686,4.183,0.376,3.182,-7.519,2.955,-0.067,0.976,-0.270,-0.824,-0.885,0.214,60.000,11185.000,1.000
9.938,3.540,2.585,5.667,1.038,2.184,-7.436,2.402,-0.065,0.976,-0.271,-0.885,-0.793,0.305,60.000,11186.000,1.000
11.586,3.170,3.647,6.328,1.137,0.954,-7.862,1.593,-0.066,0.978,-0.272,-0.854,-0.793,0.366,60.000,11187.000,1.000
12.015,1.855,4.493,5.637,0.372,-0.009,-7.730,0.749,-0.064,0.980,-0.270,-0.916,-0.854,0.336,60.000,11188.000,1.000
10.674,-0.386,4.454,3.380,-1.283,-0.642,-6.377,-0.219,-0.062,0.982,-0.267,-0.885,-0.793,0.336,60.000,11189.000,1.000
7.550,-3.300,2.818,-0.209,-3.682,-1.515,-4.819,-1.697,-0.063,0.985,-0.267,-0.916,-0.824,0.275,60.000,11190.000,1.000
3.752,-6.138,-0.217,-3.968,-6.145,-2.998,-4.585,-3.628,-0.062,0.986,-0.268,-1.099,-0.763,0.366,60.000,11191.000,1.000
1.252,-7.614,-3.068,-6.004,-7.249,-4.336,-5.363,-5.001,-0.063,0.985,-0.267,-1.160,-0.793,0.397,60.000,11192.000,1.000
0.912,-6.943,-3.995,-5.230,-5.991,-4.383,-5.459,-4.857,-0.064,0.984,-0.267,-1.221,-0.732,0.305,60.000,11193.000,1.000
2.292,-4.406,-2.433,-2.108,-2.700,-2.839,-3.533,-3.244,-0.064,0.984,-0.267,-1.312,-0.824,0.275,60.000,11194.000,1.000
3.937,-1.304,0.721,1.673,1.133,-0.636,0.059,-1.267,-0.062,0.981,-0.268,-1.221,-0.763,0.336,60.000,11195.000,1.000
4.754,1.124,3.988,4.406,3.985,0.985,3.905,-0.114,-0.063,0.980,-0.268,-1.251,-0.580,0.336,60.000,11196.000,1.000
4.501,2.300,6.017,5.006,4.933,1.177,6.268,-0.382,-0.064,0.981,-0.270,-1.343,-0.580,0.397,60.000,11197.000,1.000
2.908,2.107,6.111,3.240,3.839,-0.123,5.696,-1.935,-0.065,0.981,-0.268,-1.373,-0.549,0.336,60.000,11198.000,1.000
0.466,1.251,4.769,0.268,1.737,-1.781,2.699,-3.779,-0.065,0.979,-0.267,-1.343,-0.610,0.336,60.000,11199.000,1.000
-1.781,0.851,3.053,-2.204,0.121,-2.395,-0.634,-4.891,-0.065,0.981,-0.267,-1.312,-0.549,0.397,60.000,11200.000,1.000
-2.708,1.670,1.666,-3.103,-0.077,-1.372,-2.114,-5.008,-0.067,0.979,-0.267,-1.373,-0.519,0.244,60.000,11201.000,1.000
-2.051,3.367,0.558,-2.615,0.902,0.684,-0.959,-4.776,-0.065,0.979,-0.267,-1.434,-0.549,0.305,60.000,11202.000,1.000
-0.912,4.802,-0.413,-1.602,2.182,2.795,1.839,-4.896,-0.064,0.979,-0.262,-1.434,-0.610,0.336,60.000,11203.000,1.000
0.254,5.666,-0.578,-0.163,3.642,4.973,5.359,-4.846,-0.068,0.981,-0.268,-1.465,-0.549,0.336,60.000,11204.000,1.000
1.727,6.446,0.757,2.005,5.541,7.626,8.979,-3.496,-0.064,0.981,-0.271,-1.495,-0.519,0.336,60.000,11205.000,1.000
3.759,7.487,3.124,4.583,7.437,10.300,11.801,-0.571,-0.065,0.981,-0.269,-1.617,-0.519,0.275,60.000,11206.000,1.000
5.821,8.354,4.808,6.344,8.093,11.615,12.653,2.752,-0.065,0.978,-0.269,-1.587,-0.488,0.336,60.000,11207.000,1.000
6.391,8.156,4.233,6.063,6.582,10.628,10.714,4.784,-0.067,0.978,-0.271,-1.648,-0.488,0.366,60.000,11208.000,1.000
4.972,6.851,1.482,3.905,3.480,8.032,6.792,4.878,-0.064,0.978,-0.270,-1.678,-0.519,0.397,60.000,11209.000,1.000
2.191,4.964,-2.170,0.881,0.154,5.135,2.555,3.391,-0.064,0.977,-0.267,-1.556,-0.366,0.336,60.000,11210.000,1.000
-0.785,2.858,-5.537,-2.145,-2.390,2.546,-0.699,1.035,-0.062,0.977,-0.266,-1.465,-0.336,0.427,60.000,11211.000,1.000
-3.177,0.373,-8.412,-5.004,-4.153,-0.172,-3.016,-1.706,-0.062,0.978,-0.269,-1.404,-0.397,0.458,60.000,11212.000,1.000
-5.309,-2.819,-11.197,-7.950,-5.856,-3.712,-5.745,-4.644,-0.062,0.980,-0.267,-1.404,-0.397,0.549,60.000,11213.000,1.000
-6.842,-5.971,-13.468,-10.333,-7.466,-7.550,-9.109,-6.921,-0.063,0.979,-0.267,-1.434,-0.336,0.641,60.000,11214.000,1.000
-6.837,-7.749,-13.980,-10.886,-8.017,-10.136,-11.549,-7.162,-0.062,0.979,-0.265,-1.373,-0.183,0.549,60.000,11215.000,1.000
-4.615,-7.359,-11.773,-8.845,-6.552,-10.064,-10.954,-4.587,-0.063,0.977,-0.262,-1.373,-0.153,0.610,60.000,11216.000,1.000
-0.472,-5.103,-7.081,-4.626,-3.010,-7.031,-6.399,0.325,-0.061,0.978,-0.266,-1.312,-0.092,0.671,60.000,11217.000,1.000
3.861,-2.311,-1.306,0.357,1.601,-2.182,0.538,6.200,-0.063,0.978,-0.265,-1.434,-0.153,0.793,60.000,11218.000,1.000
6.936,-0.213,3.933,4.791,6.006,2.530,6.900,11.814,-0.062,0.978,-0.269,-1.465,-0.183,0.854,60.000,11219.000,1.000
8.160,0.612,7.460,7.807,9.209,5.240,10.026,16.228,-0.063,0.977,-0.268,-1.526,-0.122,0.763,60.000,11220.000,1.000
7.988,0.490,8.907,9.137,10.874,5.238,9.074,18.735,-0.063,0.977,-0.267,-1.434,-0.092,0.854,60.000,11221.000,1.000
7.127,-0.014,8.366,8.733,10.949,2.944,4.880,18.744,-0.066,0.977,-0.270,-1.282,-0.153,0.763,60.000,11222.000,1.000
5.292,-0.945,6.061,6.417,9.234,-0.751,-1.096,15.881,-0.063,0.978,-0.267,-1.251,-0.183,0.824,60.000,11223.000,1.000
2.511,-2.334,2.633,2.629,6.059,-4.518,-6.571,10.730,-0.063,0.979,-0.265,-1.221,-0.122,0.793,60.000,11224.000,1.000
-0.849,-4.160,-1.113,-1.707,2.286,-7.136,-9.684,4.673,-0.064,0.980,-0.267,-1.221,0.000,0.885,60.000,11225.000,1.000
-4.210,-6.264,-4.311,-5.466,-1.014,-7.873,-9.954,-0.519,-0.065,0.979,-0.265,-1.160,-0.092,0.824,60.000,11226.000,1.000
-6.804,-8.070,-6.173,-7.681,-2.981,-6.714,-7.978,-3.230,-0.063,0.982,-0.268,-1.282,-0.122,0.793,60.000,11227.000,1.000
-8.383,-8.845,-6.304,-8.015,-3.390,-4.272,-4.821,-2.791,-0.064,0.984,-0.267,-1.282,-0.061,0.763,60.000,11228.000,1.000
-8.537,-7.916,-4.706,-6.545,-2.403,-1.124,-1.013,0.281,-0.062,0.982,-0.269,-1.221,-0.061,0.854,60.000,11229.000,1.000
-7.173,-5.421,-2.062,-3.956,-0.622,1.971,2.782,4.273,-0.062,0.981,-0.266,-1.282,0.092,0.854,60.000,11230.000,1.000
-4.370,-2.010,0.731,-1.114,1.352,4.222,5.702,7.354,-0.061,0.980,-0.270,-1.282,0.031,0.732,60.000,11231.000,1.000
-0.492,1.587,3.064,1.311,3.191,5.223,7.244,8.634,-0.060,0.981,-0.265,-1.434,0.122,0.793,60.000,11232.000,1.000
2.825,4.234,4.489,2.630,4.410,4.845,7.135,8.106,-0.064,0.981,-0.266,-1.312,0.153,0.793,60.000,11233.000,1.000
4.103,4.974,4.741,2.482,4.510,3.202,5.784,6.390,-0.062,0.981,-0.268,-1.343,0.122,0.763,60.000,11234.000,1.000
2.756,3.388,3.592,0.681,3.050,0.399,3.645,3.973,-0.063,0.979,-0.268,-1.312,0.183,0.671,60.000,11235.000,1.000
-0.293,0.114,1.365,-2.412,0.285,-2.922,1.309,1.195,-0.063,0.979,-0.269,-1.221,0.122,0.702,60.000,11236.000,1.000
-2.924,-3.175,-0.627,-5.499,-2.402,-5.145,-0.031,-1.248,-0.063,0.982,-0.268,-1.160,0.122,0.702,60.000,11237.000,1.000
-3.822,-4.921,-0.911,-7.097,-3.433,-4.708,0.481,-2.539,-0.063,0.982,-0.264,-1.251,0.092,0.793,60.000,11238.000,1.000
-2.767,-4.326,1.011,-6.440,-2.078,-1.317,2.939,-2.230,-0.063,0.981,-0.264,-1.373,0.061,0.824,60.000,11239.000,1.000
-0.987,-2.031,4.045,-4.266,0.863,3.517,6.273,-0.845,-0.064,0.982,-0.268,-1.373,0.000,0.763,60.000,11240.000,1.000
-0.252,0.261,6.291,-2.184,3.612,7.368,8.807,0.431,-0.064,0.979,-0.268,-1.373,0.031,0.732,60.000,11241.000,1.000
-1.701,0.757,6.024,-1.743,4.317,8.078,8.931,0.243,-0.062,0.979,-0.267,-1.312,0.031,0.641,60.000,11242.000,1.000
-5.729,-1.537,2.483,-3.915,1.904,4.798,5.535,-2.408,-0.063,0.978,-0.266,-1.343,0.031,0.580,60.000,11243.000,1.000
-10.607,-5.374,-3.016,-7.852,-2.497,-0.777,-0.160,-6.766,-0.063,0.977,-0.267,-1.343,0.061,0.702,60.000,11244.000,1.000
-13.394,-7.864,-7.510,-11.114,-5.977,-5.134,-4.922,-10.352,-0.063,0.976,-0.268,-1.312,0.092,0.732,60.000,11245.000,1.000
-12.214,-6.912,-8.524,-11.524,-6.239,-5.584,-6.084,-10.921,-0.065,0.978,-0.267,-1.373,0.000,0.702,60.000,11246.000,1.000
-7.950,-3.201,-6.055,-9.045,-3.678,-2.582,-3.826,-8.415,-0.064,0.979,-0.263,-1.343,0.061,0.671,60.000,11247.000,1.000
-4.102,0.272,-2.368,-5.756,-0.971,0.691,-1.080,-4.945,-0.064,0.978,-0.264,-1.282,0.183,0.580,60.000,11248.000,1.000
-3.443,0.980,0.049,-3.810,-0.629,1.100,-0.688,-2.916,-0.063,0.978,-0.267,-1.190,0.092,0.610,60.000,11249.000,1.000
-6.241,-1.442,0.084,-4.068,-3.358,-2.314,-3.548,-3.466,-0.063,0.977,-0.268,-1.251,0.092,0.458,60.000,11250.000,1.000
-9.872,-4.796,-1.159,-5.374,-7.437,-7.448,-7.693,-5.524,-0.064,0.977,-0.268,-1.160,0.122,0.488,60.000,11251.000,1.000
-10.747,-6.044,-1.466,-5.559,-10.021,-10.734,-9.746,-6.768,-0.065,0.978,-0.269,-1.221,0.122,0.549,60.000,11252.000,1.000
-7.893,-4.169,0.210,-3.675,-9.697,-10.197,-8.365,-5.903,-0.066,0.978,-0.266,-1.160,0.031,0.549,60.000,11253.000,1.000
-2.834,-0.425,3.250,-0.290,-7.024,-6.356,-4.650,-3.132,-0.066,0.979,-0.264,-1.038,0.061,0.488,60.000,11254.000,1.000
1.916,3.119,6.271,3.300,-3.584,-1.313,-0.669,0.515,-0.065,0.978,-0.262,-1.038,0.000,0.580,60.000,11255.000,1.000
4.931,5.327,8.219,6.138,-0.665,2.863,2.322,3.963,-0.064,0.980,-0.269,-1.129,-0.061,0.549,60.000,11256.000,1.000
6.272,6.039,8.601,7.784,1.083,4.937,4.186,6.272,-0.065,0.981,-0.265,-1.099,0.000,0.458,60.000,11257.000,1.000
5.718,4.889,7.267,7.809,1.163,4.328,4.588,6.529,-0.064,0.980,-0.263,-1.221,-0.183,0.488,60.000,11258.000,1.000
3.265,1.730,4.590,6.209,-0.485,1.301,3.162,4.482,-0.066,0.981,-0.266,-1.190,-0.214,0.519,60.000,11259.000,1.000
-0.601,-2.872,1.251,3.498,-3.309,-3.067,-0.096,0.803,-0.065,0.979,-0.270,-1.129,-0.244,0.549,60.000,11260.000,1.000
-4.568,-7.457,-1.869,0.803,-6.031,-7.054,-4.130,-2.964,-0.065,0.978,-0.268,-1.190,-0.275,0.519,60.000,11261.000,1.000
-6.603,-10.038,-3.841,-0.467,-7.049,-9.058,-6.982,-5.014,-0.065,0.979,-0.266,-1.129,-0.336,0.488,60.000,11262.000,1.000
-5.643,-9.362,-4.091,0.309,-5.515,-8.503,-7.385,-4.383,-0.066,0.980,-0.264,-1.160,-0.458,0.549,60.000,11263.000,1.000
-2.037,-5.646,-2.570,2.544,-1.897,-5.717,-5.216,-1.397,-0.065,0.981,-0.263,-1.160,-0.427,0.580,60.000,11264.000,1.000
2.042,-0.920,-0.092,4.485,1.928,-1.859,-1.804,2.289,-0.063,0.982,-0.265,-1.251,-0.458,0.610,60.000,11265.000,1.000
4.034,2.230,2.033,4.451,3.849,1.495,0.864,4.668,-0.063,0.983,-0.265,-1.251,-0.427,0.702,60.000,11266.000,1.000
3.006,2.439,2.733,2.027,2.896,3.023,1.466,4.547,-0.064,0.981,-0.268,-1.343,-0.519,0.732,60.000,11267.000,1.000
-0.260,0.218,1.802,-1.795,-0.324,2.306,-0.232,2.074,-0.063,0.981,-0.268,-1.312,-0.519,0.671,60.000,11268.000,1.000
-3.233,-2.154,0.352,-4.800,-3.723,0.453,-2.779,-1.042,-0.063,0.981,-0.268,-1.343,-0.488,0.763,60.000,11269.000,1.000
-3.596,-2.397,-0.070,-5.030,-5.087,-0.633,-3.983,-2.673,-0.063,0.981,-0.265,-1.373,-0.641,0.793,60.000,11270.000,1.000
-0.611,0.253,1.306,-2.022,-3.422,0.433,-2.179,-1.751,-0.063,0.980,-0.264,-1.373,-0.580,0.641,60.000,11271.000,1.000
4.653,4.591,3.834,2.874,0.348,3.252,2.458,0.964,-0.064,0.981,-0.264,-1.434,-0.641,0.610,60.000,11272.000,1.000
9.249,7.999,5.812,7.075,3.742,5.581,6.990,3.369,-0.063,0.980,-0.269,-1.434,-0.671,0.671,60.000,11273.000,1.000
10.623,8.530,5.924,8.614,4.661,5.418,7.994,3.725,-0.063,0.979,-0.267,-1.404,-0.641,0.702,60.000,11274.000,1.000
8.140,6.343,4.249,7.319,2.899,2.848,4.429,1.710,-0.065,0.981,-0.267,-1.404,-0.702,0.641,60.000,11275.000,1.000
4.013,4.001,2.444,5.063,0.461,0.259,-1.032,-1.241,-0.062,0.980,-0.263,-1.373,-0.763,0.641,60.000,11276.000,1.000
1.849,4.496,2.319,4.185,-0.076,0.375,-4.027,-3.029,-0.065,0.980,-0.264,-1.312,-0.824,0.610,60.000,11277.000,1.000
2.952,8.385,4.111,5.336,2.204,4.002,-2.271,-2.639,-0.065,0.980,-0.264,-1.251,-0.763,0.641,60.000,11278.000,1.000
6.182,13.997,6.770,7.735,6.540,10.044,3.816,-0.229,-0.065,0.981,-0.265,-1.221,-0.824,0.763,60.000,11279.000,1.000
9.091,18.868,8.920,10.031,11.239,16.296,11.761,3.305,-0.064,0.981,-0.265,-1.282,-0.793,0.580,60.000,11280.000,1.000
9.655,21.073,9.609,11.063,14.523,20.442,18.354,6.804,-0.064,0.983,-0.264,-1.373,-0.854,0.580,60.000,11281.000,1.000
7.551,19.979,8.560,10.296,15.228,20.838,21.128,9.245,-0.064,0.981,-0.265,-1.312,-0.854,0.549,60.000,11282.000,1.000
3.320,15.965,5.967,7.681,12.916,16.849,18.886,9.769,-0.064,0.980,-0.264,-1.343,-0.824,0.549,60.000,11283.000,1.000
-1.925,10.111,2.389,3.711,7.951,9.217,12.239,7.944,-0.063,0.979,-0.265,-1.312,-0.824,0.488,60.000,11284.000,1.000
-7.238,3.634,-1.425,-0.802,1.394,-0.120,3.102,3.970,-0.062,0.977,-0.266,-1.251,-0.732,0.427,60.000,11285.000,1.000
-11.269,-1.841,-4.308,-4.483,-4.710,-8.183,-5.412,-0.806,-0.063,0.975,-0.266,-1.282,-0.702,0.458,60.000,11286.000,1.000
-12.191,-4.488,-5.178,-5.903,-8.035,-12.095,-9.991,-4.408,-0.062,0.976,-0.265,-1.129,-0.732,0.458,60.000,11287.000,1.000
-9.685,-3.643,-4.107,-4.943,-7.696,-11.091,-9.745,-5.848,-0.061,0.976,-0.267,-1.160,-0.702,0.458,60.000,11288.000,1.000
-4.942,-0.150,-2.163,-2.655,-4.582,-6.881,-6.462,-5.560,-0.062,0.978,-0.268,-1.007,-0.641,0.488,60.000,11289.000,1.000
-0.308,3.829,-0.715,-0.554,-0.762,-2.540,-3.342,-4.874,-0.063,0.976,-0.265,-0.885,-0.610,0.519,60.000,11290.000,1.000
2.588,6.452,-0.294,0.744,2.165,-0.209,-2.477,-4.538,-0.064,0.980,-0.267,-0.977,-0.488,0.488,60.000,11291.000,1.000
4.518,7.757,-0.105,2.192,4.343,0.367,-3.144,-3.845,-0.063,0.980,-0.264,-0.824,-0.488,0.519,60.000,11292.000,1.000
6.780,8.608,0.860,4.855,6.716,0.776,-3.377,-1.790,-0.064,0.982,-0.262,-0.916,-0.427,0.549,60.000,11293.000,1.000
9.543,9.153,2.581,8.550,9.505,2.058,-2.015,1.601,-0.065,0.983,-0.262,-0.977,-0.519,0.610,60.000,11294.000,1.000
11.051,8.238,3.720,11.570,11.504,3.612,0.001,4.925,-0.065,0.983,-0.266,-1.160,-0.488,0.641,60.000,11295.000,1.000
9.720,5.045,3.041,12.320,11.428,4.358,1.212,6.727,-0.062,0.984,-0.264,-1.282,-0.580,0.702,60.000,11296.000,1.000
6.497,0.728,0.878,10.996,9.629,4.422,1.875,6.931,-0.062,0.985,-0.267,-1.282,-0.427,0.671,60.000,11297.000,1.000
3.453,-2.697,-1.260,9.069,7.670,4.785,3.009,6.491,-0.059,0.982,-0.266,-1.312,-0.336,0.732,60.000,11298.000,1.000
1.922,-4.353,-2.249,7.731,6.660,5.898,4.840,6.168,-0.057,0.981,-0.269,-1.312,-0.275,0.671,60.000,11299.000,1.000
1.002,-5.497,-2.611,6.541,5.960,6.809,6.135,5.524,-0.056,0.978,-0.270,-1.373,-0.122,0.702,60.000,11300.000,1.000
-0.927,-7.663,-3.625,4.356,4.172,6.194,5.490,3.665,-0.056,0.978,-0.264,-1.343,0.031,0.793,60.000,11301.000,1.000
-3.992,-10.674,-5.758,0.877,0.708,3.575,2.484,0.444,-0.054,0.976,-0.265,-1.373,0.122,0.946,60.000,11302.000,1.000
-7.366,-13.066,-8.242,-3.086,-3.766,-0.364,-2.328,-3.251,-0.058,0.974,-0.264,-1.282,0.244,1.038,60.000,11303.000,1.000
-9.454,-13.033,-9.442,-5.678,-7.285,-3.616,-6.637,-5.588,-0.059,0.976,-0.265,-1.221,0.336,1.007,60.000,11304.000,1.000
-9.214,-9.937,-8.259,-5.418,-8.003,-4.246,-7.998,-5.170,-0.062,0.978,-0.265,-1.190,0.488,1.007,60.000,11305.000,1.000
-6.702,-4.766,-4.964,-2.363,-5.572,-1.879,-5.946,-2.096,-0.061,0.980,-0.261,-1.282,0.488,0.946,60.000,11306.000,1.000
-2.707,0.577,-0.951,1.960,-1.275,2.112,-1.938,2.265,-0.060,0.983,-0.262,-1.434,0.488,1.007,60.000,11307.000,1.000
0.845,4.001,1.998,5.315,2.630,5.411,1.804,5.949,-0.060,0.984,-0.263,-1.404,0.610,0.946,60.000,11308.000,1.000
2.424,4.552,2.778,6.300,4.389,6.348,4.072,7.489,-0.059,0.985,-0.264,-1.465,0.580,1.038,60.000,11309.000,1.000
1.484,2.487,1.164,4.680,3.332,4.393,4.328,6.283,-0.061,0.985,-0.266,-1.526,0.610,0.885,60.000,11310.000,1.000
-1.056,-0.947,-2.019,1.414,0.141,0.286,2.555,2.956,-0.064,0.986,-0.269,-1.556,0.671,0.885,60.000,11311.000,1.000
-2.712,-3.689,-4.814,-1.439,-3.133,-3.828,0.269,-0.465,-0.065,0.985,-0.267,-1.678,0.641,0.793,60.000,11312.000,1.000
-1.610,-4.141,-5.264,-2.019,-4.370,-5.445,-0.192,-1.789,-0.063,0.984,-0.265,-1.678,0.549,0.763,60.000,11313.000,1.000
2.543,-1.965,-2.812,0.142,-2.789,-3.373,2.603,-0.163,-0.063,0.982,-0.265,-1.709,0.488,0.732,60.000,11314.000,1.000
7.873,1.538,1.016,3.561,0.352,0.955,7.207,2.993,-0.065,0.983,-0.264,-1.831,0.397,0.610,60.000,11315.000,1.000
11.539,4.277,3.703,5.906,2.725,4.443,10.295,4.942,-0.072,0.985,-0.265,-1.831,0.214,0.458,60.000,11316.000,1.000
11.648,4.606,3.397,5.372,2.386,4.466,9.394,3.558,-0.072,0.983,-0.263,-1.923,0.031,0.397,60.000,11317.000,1.000
7.486,1.894,-0.209,1.290,-1.378,0.254,4.039,-1.468,-0.073,0.982,-0.263,-1.801,-0.214,0.336,60.000,11318.000,1.000
0.504,-2.681,-5.589,-5.013,-7.212,-6.503,-3.563,-8.123,-0.072,0.981,-0.264,-1.770,-0.488,0.244,60.000,11319.000,1.000
-6.729,-6.980,-10.520,-11.041,-12.665,-12.975,-10.158,-13.443,-0.072,0.982,-0.261,-1.770,-0.610,0.183,60.000,11320.000,1.000
-11.967,-9.313,-13.367,-14.683,-15.907,-16.971,-13.532,-15.358,-0.071,0.983,-0.262,-1.801,-0.793,0.092,60.000,11321.000,1.000
-13.779,-9.049,-13.598,-15.055,-16.454,-17.690,-13.074,-13.532,-0.069,0.981,-0.263,-1.770,-0.854,0.061,60.000,11322.000,1.000
-12.487,-6.816,-11.801,-12.800,-15.055,-15.694,-9.856,-9.373,-0.068,0.983,-0.265,-1.801,-0.977,0.092,60.000,11323.000,1.000
-9.198,-3.622,-9.021,-9.205,-12.799,-12.213,-5.597,-4.901,-0.063,0.982,-0.266,-1.770,-1.099,0.183,60.000,11324.000,1.000
-5.432,-0.544,-6.336,-5.675,-10.742,-8.858,-2.215,-1.740,-0.062,0.981,-0.262,-1.770,-1.038,0.244,60.000,11325.000,1.000
-2.391,1.550,-4.409,-3.179,-9.532,-6.855,-0.864,-0.466,-0.063,0.982,-0.262,-1.770,-1.099,0.305,60.000,11326.000,1.000
-0.010,2.542,-3.292,-1.882,-9.015,-6.194,-1.010,-0.642,-0.062,0.979,-0.261,-1.678,-1.160,0.397,60.000,11327.000,1.000
2.093,2.926,-2.757,-1.630,-8.585,-6.027,-1.565,-1.618,-0.061,0.979,-0.262,-1.617,-1.129,0.488,60.000,11328.000,1.000
4.257,3.505,-2.443,-2.221,-7.608,-5.460,-1.812,-2.816,-0.059,0.978,-0.260,-1.526,-1.099,0.793,60.000,11329.000,1.000
5.871,4.390,-2.145,-3.762,-6.051,-4.323,-1.988,-3.914,-0.057,0.979,-0.260,-1.465,-0.977,0.793,60.000,11330.000,1.000
6.122,5.233,-1.630,-6.054,-4.192,-2.867,-2.434,-4.569,-0.057,0.976,-0.260,-1.434,-0.977,0.916,60.000,11331.000,1.000
5.408,6.128,-0.642,-8.110,-2.129,-1.339,-2.860,-4.325,-0.059,0.975,-0.263,-1.404,-0.885,0.916,60.000,11332.000,1.000
4.352,7.289,0.702,-9.024,-0.039,-0.042,-3.172,-3.124,-0.058,0.976,-0.263,-1.190,-0.793,1.038,60.000,11333.000,1.000
3.741,9.008,2.314,-8.239,2.124,1.251,-2.968,-1.058,-0.059,0.976,-0.259,-1.190,-0.732,1.190,60.000,11334.000,1.000
3.992,11.280,4.182,-5.848,4.500,2.954,-1.719,1.625,-0.058,0.977,-0.259,-0.977,-0.641,1.221,60.000,11335.000,1.000
5.059,13.575,6.101,-2.535,6.975,4.854,0.508,4.437,-0.057,0.979,-0.260,-0.946,-0.427,1.190,60.000,11336.000,1.000
6.655,14.837,7.475,0.672,9.047,6.061,2.800,6.712,-0.056,0.976,-0.259,-0.946,-0.366,1.160,60.000,11337.000,1.000
7.600,13.573,7.393,2.507,9.869,5.531,3.365,7.627,-0.057,0.976,-0.263,-0.793,-0.244,1.221,60.000,11338.000,1.000
7.166,9.216,5.536,2.421,9.101,2.969,1.115,6.888,-0.056,0.975,-0.264,-0.793,-0.183,1.160,60.000,11339.000,1.000
5.320,2.524,2.471,0.715,7.067,-1.097,-3.637,4.842,-0.056,0.977,-0.261,-0.793,0.000,1.068,60.000,11340.000,1.000
2.731,-4.702,-0.598,-1.709,4.622,-5.260,-8.947,2.343,-0.054,0.975,-0.264,-0.641,0.061,1.038,60.000,11341.000,1.000
0.962,-10.126,-2.438,-3.715,2.917,-7.518,-11.736,0.521,-0.055,0.975,-0.260,-0.580,0.153,0.946,60.000,11342.000,1.000
1.000,-12.203,-2.441,-4.643,2.659,-6.458,-10.203,0.166,-0.055,0.974,-0.261,-0.580,0.214,0.916,60.000,11343.000,1.000
3.102,-10.662,-0.553,-4.174,4.020,-1.940,-4.755,1.641,-0.051,0.976,-0.264,-0.488,0.336,0.702,60.000,11344.000,1.000
6.217,-6.885,2.501,-2.649,6.342,4.436,2.093,4.435,-0.052,0.976,-0.264,-0.397,0.610,0.519,60.000,11345.000,1.000
8.461,-3.344,5.290,-1.022,8.278,9.915,7.076,7.151,-0.056,0.976,-0.265,-0.488,0.610,0.427,60.000,11346.000,1.000
8.804,-2.062,6.414,-0.189,8.590,12.120,8.183,8.374,-0.058,0.978,-0.265,-0.458,0.702,0.336,60.000,11347.000,1.000
7.058,-3.800,5.197,-0.743,6.710,10.117,5.251,7.358,-0.058,0.978,-0.264,-0.458,0.824,0.275,60.000,11348.000,1.000
4.118,-7.642,2.247,-2.509,3.235,4.968,0.205,4.480,-0.058,0.978,-0.264,-0.366,0.885,0.031,60.000,11349.000,1.000
1.017,-11.802,-1.029,-4.744,-0.519,-0.930,-4.384,0.744,-0.057,0.980,-0.265,-0.336,1.007,-0.122,60.000,11350.000,1.000
-1.349,-14.449,-3.171,-6.320,-3.112,-5.023,-6.784,-2.664,-0.059,0.979,-0.263,-0.427,1.068,-0.153,60.000,11351.000,1.000
-2.085,-14.543,-3.346,-6.194,-3.653,-5.958,-6.526,-4.708,-0.062,0.981,-0.264,-0.427,1.007,-0.214,60.000,11352.000,1.000
-1.540,-12.763,-1.946,-4.401,-2.560,-4.414,-4.558,-5.228,-0.062,0.982,-0.264,-0.397,1.038,-0.214,60.000,11353.000,1.000
-0.392,-10.417,-0.099,-1.766,-1.018,-1.991,-2.000,-4.822,-0.062,0.982,-0.265,-0.366,0.946,-0.305,60.000,11354.000,1.000
0.733,-8.446,0.978,0.469,-0.327,-0.066,0.082,-4.529,-0.063,0.980,-0.267,-0.366,0.916,-0.183,60.000,11355.000,1.000
1.486,-7.042,0.783,1.359,-1.111,0.853,0.933,-5.047,-0.064,0.982,-0.266,-0.336,0.824,-0.336,60.000,11356.000,1.000
2.315,-5.612,-0.050,1.014,-2.706,1.194,1.002,-6.017,-0.066,0.984,-0.267,-0.397,0.824,-0.336,60.000,11357.000,1.000
3.445,-3.655,-0.474,0.152,-3.905,1.555,1.242,-6.622,-0.063,0.986,-0.266,-0.336,0.763,-0.336,60.000,11358.000,1.000
4.911,-1.168,0.034,-0.432,-3.987,2.032,2.087,-6.406,-0.066,0.986,-0.262,-0.458,0.671,-0.244,60.000,11359.000,1.000
5.871,0.834,0.859,-0.616,-3.505,1.873,2.530,-5.844,-0.066,0.985,-0.265,-0.641,0.549,-0.092,60.000,11360.000,1.000
4.873,0.848,1.062,-0.713,-3.481,0.552,1.458,-5.791,-0.065,0.983,-0.264,-0.702,0.397,-0.092,60.000,11361.000,1.000
1.344,-1.758,0.268,-0.901,-4.217,-1.370,-0.729,-6.707,-0.067,0.985,-0.265,-0.763,0.275,-0.031,60.000,11362.000,1.000
-4.300,-6.338,-1.526,-1.387,-5.427,-3.169,-3.191,-8.703,-0.064,0.985,-0.267,-0.824,0.214,0.061,60.000,11363.000,1.000
-10.140,-10.999,-3.836,-1.950,-6.418,-4.459,-5.060,-11.155,-0.066,0.983,-0.264,-0.854,0.061,0.153,60.000,11364.000,1.000
-14.323,-13.979,-5.830,-2.165,-6.632,-5.111,-5.632,-12.900,-0.064,0.983,-0.267,-1.068,-0.061,0.153,60.000,11365.000,1.000
-16.290,-14.483,-6.592,-1.692,-5.808,-4.724,-4.263,-12.793,-0.065,0.983,-0.265,-1.068,-0.153,0.275,60.000,11366.000,1.000
-16.233,-12.444,-5.584,-0.309,-3.863,-2.785,-0.601,-10.338,-0.066,0.983,-0.266,-1.038,-0.214,0.366,60.000,11367.000,1.000
-15.506,-8.891,-3.402,1.438,-1.459,0.080,3.885,-6.519,-0.065,0.982,-0.261,-1.099,-0.275,0.458,60.000,11368.000,1.000
-15.520,-5.433,-1.335,2.514,0.307,2.278,6.860,-3.108,-0.064,0.981,-0.262,-0.946,-0.214,0.427,60.000,11369.000,1.000
-17.197,-3.453,-0.507,1.868,0.583,2.397,7.049,-1.413,-0.064,0.978,-0.262,-1.007,-0.305,0.549,60.000,11370.000,1.000
-20.592,-3.351,-1.261,-0.916,-0.745,0.168,4.992,-1.620,-0.066,0.975,-0.266,-0.977,-0.397,0.549,60.000,11371.000,1.000
-24.372,-4.236,-2.931,-5.021,-2.914,-3.362,2.297,-2.809,-0.063,0.975,-0.267,-0.824,-0.488,0.549,60.000,11372.000,1.000
-26.988,-4.798,-4.235,-8.776,-4.752,-6.602,-0.007,-3.605,-0.064,0.975,-0.269,-0.702,-0.336,0.580,60.000,11373.000,1.000
-27.052,-3.992,-3.966,-10.326,-5.183,-8.182,-1.424,-2.776,-0.061,0.974,-0.266,-0.641,-0.366,0.458,60.000,11374.000,1.000
-24.228,-1.626,-1.917,-8.843,-3.952,-7.611,-1.839,-0.015,-0.059,0.974,-0.269,-0.610,-0.519,0.549,60.000,11375.000,1.000
-19.101,2.054,1.356,-4.676,-1.333,-4.916,-1.050,4.204,-0.056,0.972,-0.264,-0.580,-0.427,0.580,60.000,11376.000,1.000
-12.770,6.347,4.955,0.904,2.111,-0.688,0.957,8.853,-0.059,0.974,-0.264,-0.519,-0.275,0.671,60.000,11377.000,1.000
-7.783,9.164,7.421,5.549,4.891,3.191,2.548,11.999,-0.060,0.975,-0.262,-0.519,-0.305,0.580,60.000,11378.000,1.000
-5.969,8.617,7.625,7.427,5.509,4.753,1.987,12.015,-0.062,0.975,-0.264,-0.488,-0.183,0.549,60.000,11379.000,1.000
-6.867,4.848,5.703,6.548,3.740,3.382,-0.778,8.936,-0.065,0.978,-0.264,-0.366,-0.183,0.397,60.000,11380.000,1.000
-8.604,-0.363,2.938,4.438,0.681,-0.064,-4.340,4.402,-0.066,0.982,-0.266,-0.336,-0.366,0.305,60.000,11381.000,1.000
-9.432,-5.135,0.797,2.818,-2.197,-4.055,-7.070,0.502,-0.065,0.982,-0.267,-0.397,-0.427,0.244,60.000,11382.000,1.000
-9.032,-8.439,-0.015,2.403,-4.014,-7.288,-8.325,-1.450,-0.064,0.982,-0.264,-0.458,-0.549,0.122,60.000,11383.000,1.000
-7.076,-9.355,0.682,3.307,-4.161,-8.605,-7.639,-0.972,-0.067,0.982,-0.264,-0.610,-0.519,0.122,60.000,11384.000,1.000
-3.293,-7.383,2.709,5.237,-2.429,-7.333,-4.865,1.411,-0.064,0.982,-0.265,-0.671,-0.610,0.031,60.000,11385.000,1.000
1.664,-3.232,5.468,7.518,0.531,-3.877,-0.943,4.319,-0.063,0.982,-0.263,-0.824,-0.732,-0.153,60.000,11386.000,1.000
6.596,1.531,8.047,9.417,3.421,0.336,2.555,6.397,-0.062,0.980,-0.268,-0.854,-0.732,-0.183,60.000,11387.000,1.000
9.772,5.151,9.432,10.174,4.804,3.474,4.166,6.808,-0.062,0.979,-0.262,-0.885,-0.641,-0.214,60.000,11388.000,1.000
10.281,6.752,9.010,9.493,4.023,4.454,3.789,5.494,-0.063,0.978,-0.263,-0.824,-0.610,-0.244,60.000,11389.000,1.000
8.147,6.365,6.631,7.501,1.313,3.237,2.145,2.870,-0.065,0.979,-0.264,-0.916,-0.702,-0.214,60.000,11390.000,1.000
4.153,4.727,2.852,4.789,-2.391,0.722,-0.041,-0.246,-0.063,0.981,-0.264,-0.793,-0.702,-0.275,60.000,11391.000,1.000
-0.021,3.053,-1.006,2.433,-5.699,-1.565,-1.762,-2.716,-0.063,0.983,-0.267,-0.854,-0.732,-0.275,60.000,11392.000,1.000
-3.032,2.245,-3.520,1.266,-7.473,-2.268,-2.009,-3.838,-0.066,0.984,-0.266,-0.946,-0.763,-0.305,60.000,11393.000,1.000
-3.576,3.040,-3.646,1.800,-6.978,-0.584,0.228,-3.423,-0.064,0.982,-0.265,-0.946,-0.671,-0.275,60.000,11394.000,1.000
-1.065,5.704,-1.243,3.978,-4.214,3.242,4.870,-1.677,-0.065,0.984,-0.267,-0.885,-0.763,-0.305,60.000,11395.000,1.000
3.835,9.839,3.037,7.313,0.168,8.244,10.493,1.106,-0.064,0.982,-0.266,-1.007,-0.732,-0.214,60.000,11396.000,1.000
9.804,14.629,8.005,11.045,5.156,13.290,15.452,4.447,-0.066,0.981,-0.266,-0.977,-0.854,-0.244,60.000,11397.000,1.000
14.506,18.547,11.816,13.700,9.155,16.814,18.139,7.012,-0.065,0.981,-0.266,-1.007,-0.916,-0.061,60.000,11398.000,1.000
16.193,20.257,12.931,14.075,10.886,17.592,18.005,7.443,-0.064,0.982,-0.266,-0.916,-0.885,-0.061,60.000,11399.000,1.000
14.630,19.431,11.106,12.084,10.175,15.690,15.693,5.493,-0.066,0.980,-0.265,-0.854,-0.885,-0.031,60.000,11400.000,1.000
10.866,16.777,7.299,8.504,7.680,12.133,12.179,1.978,-0.065,0.980,-0.266,-0.946,-0.885,0.031,60.000,11401.000,1.000
6.460,13.207,2.630,4.128,4.042,7.663,7.975,-2.231,-0.064,0.979,-0.265,-0.916,-0.916,0.031,60.000,11402.000,1.000
1.830,8.834,-2.276,-0.748,-0.482,2.439,2.737,-6.775,-0.064,0.978,-0.264,-0.885,-1.007,0.153,60.000,11403.000,1.000
-2.703,3.879,-6.636,-5.389,-5.011,-2.661,-2.962,-10.877,-0.063,0.979,-0.264,-0.824,-1.007,0.275,60.000,11404.000,1.000
-6.487,-0.806,-9.540,-8.749,-8.083,-6.179,-7.340,-13.301,-0.063,0.979,-0.263,-0.793,-1.099,0.336,60.000,11405.000,1.000
-8.903,-4.173,-10.504,-10.222,-8.630,-7.234,-8.775,-13.251,-0.063,0.979,-0.266,-0.763,-1.068,0.366,60.000,11406.000,1.000
-9.476,-5.710,-9.778,-9.946,-6.682,-6.107,-7.004,-10.982,-0.063,0.980,-0.268,-0.610,-1.099,0.275,60.000,11407.000,1.000
-8.773,-5.991,-8.209,-8.811,-3.456,-3.968,-3.800,-7.733,-0.064,0.980,-0.266,-0.610,-0.977,0.244,60.000,11408.000,1.000
-7.091,-5.479,-6.267,-7.379,-0.060,-1.507,-0.974,-4.453,-0.062,0.982,-0.264,-0.549,-1.007,0.275,60.000,11409.000,1.000
-4.485,-4.277,-4.078,-5.811,2.931,1.105,0.826,-1.483,-0.063,0.979,-0.261,-0.458,-0.977,0.336,60.000,11410.000,1.000
-1.576,-2.759,-1.979,-4.345,5.131,3.447,1.697,0.942,-0.063,0.980,-0.260,-0.641,-0.946,0.244,60.000,11411.000,1.000
1.108,-1.401,-0.409,-3.149,6.367,4.958,1.927,2.686,-0.064,0.978,-0.261,-0.732,-0.977,0.244,60.000,11412.000,1.000
3.222,-0.439,0.497,-2.175,6.718,5.404,1.323,3.876,-0.065,0.977,-0.263,-0.641,-1.007,0.214,60.000,11413.000,1.000
5.431,0.656,1.357,-0.745,6.901,5.422,0.241,5.345,-0.064,0.978,-0.264,-0.610,-0.977,0.153,60.000,11414.000,1.000
8.229,2.266,2.779,1.534,7.601,5.729,-0.392,7.811,-0.063,0.979,-0.261,-0.549,-1.007,0.153,60.000,11415.000,1.000
10.849,3.891,4.432,3.876,8.631,6.150,-0.025,10.792,-0.063,0.978,-0.259,-0.488,-1.038,0.061,60.000,11416.000,1.000
12.319,4.866,5.256,4.941,9.197,5.889,1.276,12.906,-0.064,0.979,-0.263,-0.519,-1.038,0.061,60.000,11417.000,1.000
11.952,4.915,4.497,3.880,8.595,4.495,2.724,13.019,-0.063,0.978,-0.264,-0.427,-1.038,0.092,60.000,11418.000,1.000
10.483,4.632,2.743,1.398,7.103,2.680,3.827,11.435,-0.064,0.977,-0.260,-0.397,-1.068,0.031,60.000,11419.000,1.000
9.039,4.580,1.194,-1.079,5.419,1.319,4.088,9.285,-0.064,0.976,-0.261,-0.336,-1.038,-0.092,60.000,11420.000,1.000
7.963,4.730,0.583,-2.488,3.879,0.554,2.832,7.532,-0.063,0.975,-0.265,-0.336,-1.007,-0.092,60.000,11421.000,1.000
7.555,5.177,1.128,-2.201,2.691,0.191,0.303,6.889,-0.063,0.976,-0.267,-0.305,-1.007,-0.092,60.000,11422.000,1.000
7.551,5.830,2.453,-0.535,1.809,-0.097,-2.747,7.417,-0.066,0.975,-0.266,-0.275,-0.946,-0.122,60.000,11423.000,1.000
7.616,6.276,3.824,1.481,1.079,-0.419,-5.351,8.482,-0.064,0.976,-0.269,-0.183,-1.007,-0.122,60.000,11424.000,1.000
7.529,5.988,4.494,2.674,0.381,-0.633,-6.816,9.094,-0.063,0.977,-0.270,-0.122,-1.038,-0.183,60.000,11425.000,1.000
7.191,4.795,4.101,2.352,-0.272,-0.476,-6.849,8.559,-0.062,0.975,-0.266,-0.061,-1.068,-0.214,60.000,11426.000,1.000
6.826,3.021,2.707,0.553,-0.814,0.178,-5.295,6.838,-0.065,0.979,-0.268,0.000,-0.977,-0.214,60.000,11427.000,1.000
6.046,0.808,0.484,-2.360,-1.506,0.865,-2.844,4.172,-0.063,0.980,-0.267,0.031,-0.824,-0.183,60.000,11428.000,1.000
4.951,-1.489,-1.950,-5.365,-2.373,1.139,-0.440,1.270,-0.065,0.982,-0.265,-0.092,-0.916,-0.214,60.000,11429.000,1.000
4.373,-3.154,-3.612,-7.110,-2.949,1.103,1.233,-0.820,-0.063,0.982,-0.264,-0.153,-0.824,-0.122,60.000,11430.000,1.000
5.115,-3.438,-3.626,-6.656,-2.550,1.440,2.125,-1.271,-0.063,0.981,-0.266,-0.275,-0.824,-0.153,60.000,11431.000,1.000
7.467,-2.025,-1.840,-4.063,-0.844,2.721,2.991,-0.043,-0.062,0.982,-0.269,-0.336,-0.824,-0.122,60.000,11432.000,1.000
10.116,0.233,0.705,-0.739,1.478,4.317,4.120,1.791,-0.064,0.982,-0.268,-0.305,-0.824,-0.061,60.000,11433.000,1.000
11.621,2.044,2.473,1.790,3.317,4.890,5.277,2.933,-0.063,0.980,-0.269,-0.427,-0.885,-0.122,60.000,11434.000,1.000
11.183,2.202,2.185,2.619,3.681,3.452,5.610,2.415,-0.064,0.980,-0.270,-0.580,-0.824,-0.092,60.000,11435.000,1.000
8.616,0.063,-0.399,1.676,2.124,0.313,4.146,-0.066,-0.063,0.984,-0.267,-0.549,-0.763,-0.153,60.000,11436.000,1.000
4.748,-3.805,-4.174,-0.228,-0.742,-2.941,1.137,-3.782,-0.064,0.983,-0.268,-0.671,-0.671,-0.061,60.000,11437.000,1.000
0.290,-8.255,-7.744,-2.331,-3.847,-5.077,-2.446,-7.629,-0.064,0.984,-0.268,-0.702,-0.763,-0.092,60.000,11438.000,1.000
-3.697,-11.824,-10.065,-4.021,-6.015,-5.818,-5.151,-10.461,-0.064,0.985,-0.266,-0.854,-0.793,0.031,60.000,11439.000,1.000
-5.715,-12.910,-10.269,-4.459,-6.024,-5.051,-5.256,-11.084,-0.065,0.984,-0.267,-0.946,-0.793,0.061,60.000,11440.000,1.000
-4.461,-10.188,-7.480,-2.518,-2.836,-2.217,-1.424,-8.457,-0.065,0.984,-0.267,-0.916,-0.793,0.244,60.000,11441.000,1.000
0.360,-3.698,-1.762,2.155,3.335,2.683,5.921,-2.728,-0.065,0.984,-0.266,-1.038,-0.763,0.153,60.000,11442.000,1.000
6.633,4.132,4.941,7.832,10.137,7.982,13.441,3.840,-0.066,0.982,-0.265,-1.068,-0.763,0.183,60.000,11443.000,1.000
11.676,10.156,10.074,11.982,14.668,11.670,17.532,8.365,-0.066,0.980,-0.263,-1.160,-0.854,0.244,60.000,11444.000,1.000
13.672,12.253,11.896,12.803,15.101,12.557,16.704,9.088,-0.066,0.979,-0.266,-1.129,-0.977,0.275,60.000,11445.000,1.000
11.870,9.814,9.920,9.869,11.145,10.169,11.425,5.950,-0.067,0.980,-0.267,-1.068,-0.977,0.366,60.000,11446.000,1.000
7.108,3.850,4.927,4.307,4.136,4.800,3.333,0.452,-0.065,0.978,-0.271,-1.099,-0.977,0.427,60.000,11447.000,1.000
1.069,-3.431,-1.227,-1.800,-3.397,-2.028,-5.559,-5.041,-0.066,0.978,-0.268,-1.129,-0.946,0.397,60.000,11448.000,1.000
-3.607,-8.927,-5.995,-6.014,-8.473,-7.543,-12.623,-8.130,-0.064,0.977,-0.268,-1.099,-1.038,0.549,60.000,11449.000,1.000
-5.131,-10.647,-7.908,-7.214,-9.605,-9.792,-15.955,-8.087,-0.063,0.979,-0.269,-1.068,-1.038,0.488,60.000,11450.000,1.000
-4.202,-9.244,-7.609,-6.354,-7.778,-9.108,-15.585,-6.374,-0.063,0.977,-0.269,-0.946,-1.038,0.519,60.000,11451.000,1.000
-2.562,-6.705,-6.563,-4.927,-4.986,-6.951,-12.516,-4.776,-0.063,0.979,-0.265,-0.885,-0.977,0.519,60.000,11452.000,1.000
-1.902,-4.780,-5.624,-3.753,-2.725,-4.514,-8.200,-3.938,-0.062,0.980,-0.262,-0.824,-0.946,0.458,60.000,11453.000,1.000
-2.603,-4.163,-4.814,-2.748,-1.503,-2.421,-4.047,-3.452,-0.060,0.979,-0.265,-0.824,-0.885,0.519,60.000,11454.000,1.000
-4.090,-4.859,-4.185,-1.784,-1.457,-1.445,-1.627,-3.038,-0.061,0.978,-0.264,-0.916,-0.824,0.549,60.000,11455.000,1.000
-5.435,-6.259,-3.784,-0.758,-2.277,-2.072,-1.922,-2.651,-0.061,0.978,-0.265,-0.946,-0.702,0.519,60.000,11456.000,1.000
-5.372,-7.093,-3.101,0.895,-2.757,-3.466,-3.879,-1.832,-0.060,0.979,-0.264,-0.824,-0.580,0.519,60.000,11457.000,1.000
-3.799,-6.495,-1.625,3.469,-1.780,-4.161,-5.428,-0.212,-0.061,0.977,-0.264,-0.732,-0.488,0.427,60.000,11458.000,1.000
-1.244,-4.224,0.590,6.629,0.835,-3.279,-4.856,2.037,-0.060,0.978,-0.266,-0.763,-0.519,0.549,60.000,11459.000,1.000
1.343,-0.972,2.631,9.144,3.936,-1.512,-2.397,3.993,-0.060,0.979,-0.268,-0.763,-0.427,0.458,60.000,11460.000,1.000
2.466,1.635,3.237,9.409,5.656,-0.658,-0.191,4.511,-0.060,0.978,-0.266,-0.610,-0.244,0.397,60.000,11461.000,1.000
1.196,2.138,1.849,6.752,4.813,-1.965,0.000,3.255,-0.062,0.977,-0.266,-0.549,-0.244,0.397,60.000,11462.000,1.000
-2.597,0.207,-0.939,1.874,1.622,-5.154,-2.008,0.903,-0.060,0.979,-0.268,-0.580,-0.153,0.397,60.000,11463.000,1.000
-7.013,-2.355,-3.182,-2.843,-1.809,-8.069,-4.123,-0.738,-0.060,0.978,-0.267,-0.641,-0.153,0.275,60.000,11464.000,1.000
-9.103,-2.791,-2.706,-4.471,-2.621,-8.012,-3.476,0.308,-0.062,0.979,-0.269,-0.549,-0.061,0.244,60.000,11465.000,1.000
-7.262,0.277,1.116,-1.605,0.565,-3.889,1.050,4.508,-0.062,0.982,-0.268,-0.549,0.061,0.153,60.000,11466.000,1.000
-1.870,6.028,6.781,4.632,6.590,2.953,8.107,10.260,-0.061,0.981,-0.269,-0.549,0.092,0.275,60.000,11467.000,1.000
4.556,12.008,11.679,11.119,12.486,9.642,14.572,14.864,-0.062,0.981,-0.268,-0.610,0.122,0.366,60.000,11468.000,1.000
9.368,15.962,13.932,14.938,15.623,13.809,18.056,16.402,-0.061,0.981,-0.268,-0.610,0.061,0.275,60.000,11469.000,1.000
10.740,16.467,12.862,14.523,14.708,14.256,17.729,14.238,-0.063,0.981,-0.268,-0.702,0.153,0.366,60.000,11470.000,1.000
8.278,13.274,8.927,10.076,10.028,11.034,13.807,8.989,-0.062,0.979,-0.268,-0.671,0.214,0.275,60.000,11471.000,1.000
4.084,8.010,3.769,3.736,3.544,5.619,7.731,2.655,-0.060,0.979,-0.269,-0.610,0.244,0.275,60.000,11472.000,1.000
0.655,2.985,-0.732,-1.901,-2.409,-0.015,1.346,-2.512,-0.062,0.981,-0.265,-0.763,0.244,0.366,60.000,11473.000,1.000
-0.489,-0.083,-3.329,-5.061,-6.249,-4.302,-3.625,-5.091,-0.064,0.982,-0.271,-0.763,0.153,0.427,60.000,11474.000,1.000
0.549,-0.833,-3.963,-5.657,-7.766,-6.771,-6.634,-5.187,-0.064,0.981,-0.267,-0.793,0.153,0.427,60.000,11475.000,1.000
2.256,-0.176,-3.519,-5.042,-7.874,-7.876,-8.380,-4.151,-0.063,0.981,-0.268,-0.763,0.092,0.519,60.000,11476.000,1.000
3.120,0.576,-3.030,-4.699,-7.645,-8.079,-9.307,-3.410,-0.065,0.981,-0.266,-0.793,0.153,0.488,60.000,11477.000,1.000
1.897,0.328,-3.196,-5.484,-7.779,-7.572,-9.527,-3.710,-0.066,0.981,-0.263,-1.038,0.122,0.519,60.000,11478.000,1.000
-0.935,-0.721,-3.789,-6.854,-7.989,-6.118,-8.743,-4.581,-0.067,0.979,-0.265,-0.977,0.061,0.580,60.000,11479.000,1.000
-3.468,-1.434,-4.010,-7.491,-7.479,-3.681,-6.718,-5.069,-0.069,0.978,-0.268,-0.916,0.000,0.580,60.000,11480.000,1.000
-3.840,-0.728,-3.169,-6.458,-5.737,-0.736,-3.483,-4.686,-0.068,0.979,-0.266,-0.885,-0.092,0.549,60.000,11481.000,1.000
-0.940,1.944,-1.049,-3.689,-2.723,2.144,0.925,-3.461,-0.069,0.980,-0.263,-0.977,-0.214,0.519,60.000,11482.000,1.000
3.693,5.445,1.555,-0.532,0.568,4.166,5.243,-2.156,-0.068,0.978,-0.269,-0.916,-0.305,0.397,60.000,11483.000,1.000
6.765,7.360,3.171,1.020,2.418,4.526,7.378,-1.872,-0.069,0.977,-0.268,-0.824,-0.305,0.488,60.000,11484.000,1.000
5.553,5.663,2.552,-0.449,1.393,2.695,5.803,-3.351,-0.067,0.976,-0.265,-0.793,-0.488,0.427,60.000,11485.000,1.000
0.169,0.656,-0.169,-4.549,-2.244,-0.840,1.124,-6.132,-0.066,0.978,-0.267,-0.824,-0.519,0.488,60.000,11486.000,1.000
-5.643,-4.562,-3.145,-8.807,-6.086,-4.165,-3.486,-8.440,-0.064,0.979,-0.269,-0.793,-0.549,0.427,60.000,11487.000,1.000
-8.262,-6.843,-4.427,-10.786,-7.693,-5.456,-5.277,-8.849,-0.065,0.977,-0.269,-0.763,-0.610,0.458,60.000,11488.000,1.000
-6.835,-5.364,-3.417,-9.715,-6.496,-4.307,-3.816,-7.330,-0.064,0.978,-0.266,-0.824,-0.641,0.427,60.000,11489.000,1.000
-3.232,-1.793,-1.059,-6.609,-3.837,-1.794,-0.540,-4.944,-0.062,0.979,-0.270,-0.763,-0.763,0.488,60.000,11490.000,1.000
0.228,1.544,1.213,-3.025,-1.419,0.602,2.883,-2.740,-0.064,0.979,-0.267,-0.641,-0.732,0.427,60.000,11491.000,1.000
2.841,3.360,2.343,-0.006,-0.185,1.806,5.436,-1.228,-0.064,0.981,-0.268,-0.702,-0.793,0.336,60.000,11492.000,1.000
3.814,2.836,1.405,1.337,-0.943,0.739,5.474,-1.202,-0.064,0.981,-0.268,-0.732,-0.885,0.336,60.000,11493.000,1.000
2.125,-0.387,-2.048,0.125,-4.238,-3.216,1.574,-3.527,-0.063,0.981,-0.272,-0.916,-0.763,0.366,60.000,11494.000,1.000
-2.182,-5.474,-7.166,-3.314,-9.368,-9.157,-5.524,-7.846,-0.061,0.980,-0.269,-1.038,-0.763,0.427,60.000,11495.000,1.000
-7.122,-10.122,-11.588,-6.986,-14.002,-14.324,-12.506,-11.889,-0.063,0.979,-0.267,-0.946,-0.763,0.488,60.000,11496.000,1.000
-9.489,-11.838,-12.831,-8.377,-15.582,-15.776,-15.547,-12.815,-0.064,0.979,-0.269,-1.007,-0.824,0.427,60.000,11497.000,1.000
-8.165,-10.256,-10.408,-6.784,-13.638,-13.111,-13.876,-9.784,-0.065,0.979,-0.272,-0.916,-0.793,0.336,60.000,11498.000,1.000
-4.470,-6.986,-5.931,-3.505,-9.790,-8.519,-9.719,-4.374,-0.065,0.976,-0.268,-0.977,-0.916,0.275,60.000,11499.000,1.000
-0.801,-4.093,-1.752,-0.604,-6.251,-4.739,-6.145,0.815,-0.066,0.978,-0.268,-0.977,-0.885,0.275,60.000,11500.000,1.000
1.168,-2.582,0.779,0.729,-4.151,-2.919,-4.736,4.016,-0.068,0.980,-0.271,-0.916,-0.977,0.214,60.000,11501.000,1.000
1.751,-1.968,1.948,0.868,-3.009,-2.255,-4.452,5.071,-0.067,0.981,-0.270,-0.885,-0.977,0.183,60.000,11502.000,1.000
1.256,-1.876,2.368,0.356,-2.252,-1.912,-3.970,4.355,-0.065,0.982,-0.266,-0.946,-1.068,0.183,60.000,11503.000,1.000
-0.170,-2.306,2.167,-0.560,-1.926,-2.024,-3.238,2.334,-0.065,0.981,-0.268,-1.068,-1.038,0.122,60.000,11504.000,1.000
-2.120,-3.199,1.149,-1.754,-2.433,-3.293,-3.305,-0.400,-0.064,0.978,-0.271,-1.160,-0.977,0.153,60.000,11505.000,1.000
-4.209,-4.462,-0.620,-3.077,-3.971,-5.899,-4.974,-3.188,-0.064,0.977,-0.267,-1.068,-1.007,0.122,60.000,11506.000,1.000
-5.794,-5.902,-2.433,-4.084,-5.983,-8.815,-7.379,-5.271,-0.066,0.979,-0.267,-1.160,-0.977,0.183,60.000,11507.000,1.000
-6.713,-7.310,-3.312,-4.339,-7.441,-10.481,-9.004,-6.061,-0.066,0.979,-0.267,-1.129,-1.007,0.244,60.000,11508.000,1.000
-6.664,-7.958,-2.397,-3.379,-7.198,-9.563,-8.635,-5.100,-0.065,0.979,-0.266,-1.190,-1.007,0.305,60.000,11509.000,1.000
-5.765,-7.434,0.126,-1.416,-5.068,-6.083,-6.440,-2.719,-0.066,0.980,-0.270,-1.221,-0.946,0.397,60.000,11510.000,1.000
-4.965,-6.304,2.984,0.503,-2.143,-1.617,-4.006,-0.246,-0.067,0.980,-0.268,-1.190,-1.007,0.275,60.000,11511.000,1.000
-4.323,-4.902,5.161,1.716,0.601,2.151,-2.351,1.242,-0.068,0.980,-0.267,-1.251,-1.190,0.183,60.000,11512.000,1.000
-3.391,-2.963,6.534,2.288,2.971,4.474,-1.247,1.618,-0.068,0.979,-0.266,-1.251,-1.129,0.214,60.000,11513.000,1.000
-1.492,0.149,7.657,2.924,5.445,5.910,0.624,1.691,-0.068,0.979,-0.265,-1.221,-1.099,0.244,60.000,11514.000,1.000
1.542,4.542,8.810,4.088,8.265,7.485,4.207,2.244,-0.071,0.981,-0.264,-1.282,-1.129,0.275,60.000,11515.000,1.000
4.850,9.233,9.518,5.447,10.896,9.704,9.064,3.301,-0.068,0.981,-0.263,-1.495,-1.190,0.275,60.000,11516.000,1.000
7.636,12.837,9.113,6.482,12.590,12.274,14.033,4.551,-0.067,0.981,-0.264,-1.495,-1.312,0.214,60.000,11517.000,1.000
8.797,13.897,7.199,6.636,12.676,14.007,17.171,5.615,-0.068,0.983,-0.266,-1.495,-1.190,0.214,60.000,11518.000,1.000
7.642,11.743,4.165,5.737,11.080,13.955,17.167,6.357,-0.068,0.981,-0.264,-1.526,-1.282,0.244,60.000,11519.000,1.000
4.327,6.893,0.959,3.976,8.361,12.342,14.522,6.636,-0.067,0.980,-0.264,-1.526,-1.343,0.305,60.000,11520.000,1.000
-0.548,0.540,-1.805,1.465,5.092,9.904,10.738,5.874,-0.065,0.979,-0.266,-1.495,-1.312,0.275,60.000,11521.000,1.000
-6.062,-6.158,-4.465,-1.946,1.363,6.634,6.930,3.248,-0.063,0.982,-0.266,-1.587,-1.282,0.275,60.000,11522.000,1.000
-12.171,-12.785,-7.974,-6.667,-3.252,1.615,2.717,-1.828,-0.064,0.978,-0.267,-1.587,-1.190,0.397,60.000,11523.000,1.000
-18.510,-18.629,-12.287,-12.049,-8.417,-5.197,-2.373,-8.571,-0.066,0.977,-0.268,-1.678,-1.099,0.305,60.000,11524.000,1.000
-23.484,-21.970,-15.806,-15.956,-12.527,-12.216,-7.948,-14.608,-0.066,0.975,-0.269,-1.648,-1.099,0.397,60.000,11525.000,1.000
-24.924,-20.750,-16.351,-15.898,-13.539,-17.031,-12.835,-17.026,-0.067,0.971,-0.269,-1.526,-1.068,0.519,60.000,11526.000,1.000
-21.071,-14.002,-12.785,-10.741,-10.381,-17.799,-15.414,-14.191,-0.068,0.972,-0.268,-1.343,-1.038,0.641,60.000,11527.000,1.000
-13.047,-3.664,-6.264,-2.244,-4.352,-14.746,-15.449,-7.390,-0.067,0.971,-0.265,-1.129,-1.068,0.671,60.000,11528.000,1.000
-4.058,6.388,0.740,6.191,1.871,-9.679,-13.792,0.197,-0.068,0.974,-0.261,-1.099,-1.099,0.732,60.000,11529.000,1.000
2.665,12.662,5.945,11.579,6.017,-4.757,-11.371,5.591,-0.069,0.975,-0.265,-1.099,-1.099,0.610,60.000,11530.000,1.000
5.216,13.740,8.160,12.666,7.180,-1.573,-8.960,7.426,-0.066,0.980,-0.266,-1.007,-0.977,0.610,60.000,11531.000,1.000
4.400,11.068,7.804,10.596,6.209,-0.239,-6.557,6.595,-0.065,0.980,-0.265,-1.068,-0.854,0.671,60.000,11532.000,1.000
2.473,7.633,6.380,7.841,4.911,0.405,-3.784,5.194,-0.064,0.980,-0.265,-1.038,-0.793,0.580,60.000,11533.000,1.000
1.852,6.048,5.453,6.650,4.959,1.827,-0.067,4.962,-0.064,0.980,-0.267,-1.038,-0.732,0.641,60.000,11534.000,1.000
3.332,6.701,5.520,7.609,6.762,4.371,4.481,6.104,-0.062,0.978,-0.267,-0.946,-0.763,0.519,60.000,11535.000,1.000
5.666,7.894,6.020,9.721,9.451,7.109,8.691,7.658,-0.063,0.979,-0.268,-0.793,-0.671,0.458,60.000,11536.000,1.000
7.657,8.027,6.172,11.693,11.804,8.953,11.474,8.653,-0.063,0.976,-0.266,-0.793,-0.641,0.305,60.000,11537.000,1.000
8.188,6.312,5.186,12.170,12.415,9.034,11.828,8.195,-0.061,0.977,-0.267,-0.610,-0.549,0.275,60.000,11538.000,1.000
6.641,2.881,2.786,10.379,10.445,7.203,9.614,5.911,-0.059,0.978,-0.267,-0.519,-0.519,0.183,60.000,11539.000,1.000
3.081,-1.421,-0.457,6.551,6.312,4.251,5.977,2.348,-0.058,0.978,-0.268,-0.549,-0.488,0.122,60.000,11540.000,1.000
-1.846,-5.301,-3.397,1.749,1.488,1.580,2.726,-1.356,-0.058,0.978,-0.264,-0.488,-0.244,0.214,60.000,11541.000,1.000
-6.234,-7.127,-4.909,-2.416,-2.225,0.481,1.521,-3.963,-0.058,0.979,-0.267,-0.275,-0.122,0.214,60.000,11542.000,1.000
-8.458,-6.101,-4.756,-4.834,-3.872,1.013,2.172,-4.844,-0.059,0.980,-0.268,-0.336,0.122,0.214,60.000,11543.000,1.000
-8.125,-2.993,-3.600,-5.305,-3.641,2.127,3.061,-4.067,-0.059,0.984,-0.270,-0.519,0.336,0.305,60.000,11544.000,1.000
-6.486,-0.075,-2.558,-4.614,-2.696,2.407,2.399,-2.443,-0.062,0.982,-0.269,-0.641,0.458,0.366,60.000,11545.000,1.000
-5.158,0.717,-2.188,-3.632,-2.118,1.287,-0.454,-0.844,-0.059,0.982,-0.266,-0.732,0.427,0.336,60.000,11546.000,1.000
